{
    "testproblem": "cifar10_3c3d",
    "batch_size": 128,
    "num_epochs": 100,
    "random_seed": 42,
    "l2_reg": null,
    "optimizer_name": "AdaBoundOptimizer",
    "optimizer_hyperparams": {
        "learning_rate": 0.2834090429514773,
        "final_lr": 0.04811512787019832,
        "beta1": 0.6287210764455682,
        "beta2": 0.8113934061433888,
        "gamma": 0.0008569331925053981,
        "epsilon": 1e-08,
        "amsbound": true,
        "use_locking": false
    },
    "training_params": {
        "lr_sched_epochs": [],
        "lr_sched_factors": []
    },
    "train_losses": [
        3.5912249027154384,
        23722612.0,
        23321052.0,
        22768218.0,
        22117684.0,
        21404680.0,
        20653458.0,
        19881236.0,
        19100496.0,
        18320432.0,
        17547854.0,
        16787806.0,
        16044031.0,
        15319310.0,
        14615582.0,
        13934217.0,
        13276112.0,
        12641789.0,
        12031490.833333334,
        11445191.0,
        10882737.0,
        10343796.0,
        9827936.0,
        9334633.0,
        8863304.0,
        8413317.0,
        7984002.0,
        7574668.5,
        7184612.0,
        6813122.0,
        6459486.0,
        6122994.5,
        5802952.0,
        5498670.0,
        5209476.5,
        4934714.0,
        4673742.5,
        4425944.0,
        4190715.5,
        3967476.5,
        3755668.5,
        3554749.5,
        3364202.25,
        3183526.25,
        3012244.25,
        2849896.5,
        2696043.5,
        2550265.25,
        2412158.5,
        2281339.5,
        2157440.25,
        2040111.5,
        1929019.0,
        1823844.0,
        1724283.375,
        1630047.125,
        1540861.375,
        1456463.25,
        1376603.875,
        1301047.0,
        1229566.625,
        1161949.5,
        1097991.75,
        1037500.8125,
        980292.6875,
        926193.75,
        875038.625,
        826670.875,
        780941.625,
        737709.6875,
        696841.4375,
        658210.1875,
        621695.4375,
        587183.3125,
        554566.0625,
        523741.09375,
        494611.59375,
        467085.75,
        441076.5625,
        416501.75,
        393283.125,
        371347.03125,
        350623.5,
        331046.34375,
        312552.9375,
        295084.0625,
        278583.53125,
        262998.4375,
        248278.40625,
        234376.015625,
        221246.34375,
        208846.796875,
        197137.3125,
        186079.7970753205,
        175638.25,
        165778.71875,
        156469.0625,
        147678.890625,
        139379.484375,
        131543.5939503205,
        124145.6484375
    ],
    "valid_losses": [
        3.599660051174653,
        23722612.0,
        23321052.0,
        22768218.0,
        22117684.0,
        21404680.0,
        20653458.0,
        19881236.0,
        19100496.0,
        18320432.0,
        17547854.0,
        16787806.0,
        16044031.0,
        15319310.0,
        14615582.0,
        13934217.0,
        13276112.0,
        12641789.0,
        12031481.397435898,
        11445191.0,
        10882737.0,
        10343796.0,
        9827936.0,
        9334633.0,
        8863304.0,
        8413317.0,
        7984002.0,
        7574668.5,
        7184612.0,
        6813122.0,
        6459486.0,
        6122994.5,
        5802952.0,
        5498670.0,
        5209476.5,
        4934714.0,
        4673742.5,
        4425944.0,
        4190715.5,
        3967476.5,
        3755668.5,
        3554749.5,
        3364202.25,
        3183526.25,
        3012244.25,
        2849896.5,
        2696043.5,
        2550265.25,
        2412158.5,
        2281339.5,
        2157440.25,
        2040111.5,
        1929019.0,
        1823844.0,
        1724283.375,
        1630047.125,
        1540861.375,
        1456463.25,
        1376603.875,
        1301047.0,
        1229566.625,
        1161949.5,
        1097991.75,
        1037500.8125,
        980292.6875,
        926193.75,
        875038.625,
        826670.875,
        780941.625,
        737709.6875,
        696841.4375,
        658210.1875,
        621695.4375,
        587183.3125,
        554566.0625,
        523741.09375,
        494611.59375,
        467085.75,
        441076.5625,
        416501.75,
        393283.125,
        371347.03125,
        350623.5,
        331046.34375,
        312552.9375,
        295084.0625,
        278583.53125,
        262998.4375,
        248278.40625,
        234376.015625,
        221246.34375,
        208846.796875,
        197137.3125,
        186079.796875,
        175638.25,
        165778.71875,
        156469.0625,
        147678.890625,
        139379.484375,
        131543.59375,
        124145.6484375
    ],
    "test_losses": [
        3.5975104662088246,
        23722612.0,
        23321052.0,
        22768218.0,
        22117684.0,
        21404680.0,
        20653458.0,
        19881236.0,
        19100496.0,
        18320432.0,
        17547854.0,
        16787806.0,
        16044031.0,
        15319310.0,
        14615582.0,
        13934217.0,
        13276112.0,
        12641789.0,
        12031481.0,
        11445191.0,
        10882737.0,
        10343796.0,
        9827936.0,
        9334633.0,
        8863304.0,
        8413317.0,
        7984002.0,
        7574668.5,
        7184612.0,
        6813122.0,
        6459486.0,
        6122994.5,
        5802952.0,
        5498670.0,
        5209476.5,
        4934714.0,
        4673742.5,
        4425944.0,
        4190715.5,
        3967476.5,
        3755668.5,
        3554749.5,
        3364202.25,
        3183526.25,
        3012244.25,
        2849896.5,
        2696043.5,
        2550265.25,
        2412158.5,
        2281339.5,
        2157440.25,
        2040111.5,
        1929019.0,
        1823844.0,
        1724283.375,
        1630047.125,
        1540861.375,
        1456463.25,
        1376603.875,
        1301047.0,
        1229566.625,
        1161949.5,
        1097991.75,
        1037500.8125,
        980292.6875,
        926193.75,
        875038.625,
        826670.875,
        780941.625,
        737709.6875,
        696841.4375,
        658210.1875,
        621695.4375,
        587183.3125,
        554566.0625,
        523741.09375,
        494611.59375,
        467085.75,
        441076.5625,
        416501.75,
        393283.125,
        371347.03125,
        350623.5,
        331046.34375,
        312552.9375,
        295084.0625,
        278583.53125,
        262998.4375,
        248278.40625,
        234376.015625,
        221246.34375,
        208846.796875,
        197137.3125,
        186079.796875,
        175638.25,
        165778.71875,
        156469.0625,
        147678.890625,
        139379.484375,
        131543.59375,
        124145.6484375
    ],
    "train_accuracies": [
        0.09665464743589744,
        0.10286458333333333,
        0.10106169871794872,
        0.10086137820512821,
        0.09915865384615384,
        0.09845753205128205,
        0.09965945512820513,
        0.10116185897435898,
        0.10026041666666667,
        0.09725560897435898,
        0.09815705128205128,
        0.0985576923076923,
        0.1015625,
        0.1006610576923077,
        0.09745592948717949,
        0.1006610576923077,
        0.09775641025641026,
        0.10106169871794872,
        0.10546875,
        0.09835737179487179,
        0.10466746794871795,
        0.10116185897435898,
        0.09845753205128205,
        0.10116185897435898,
        0.10256410256410256,
        0.09805689102564102,
        0.10266426282051282,
        0.10096153846153846,
        0.10416666666666667,
        0.09665464743589744,
        0.10336538461538461,
        0.09945913461538461,
        0.1006610576923077,
        0.10356570512820513,
        0.10336538461538461,
        0.10006009615384616,
        0.09695512820512821,
        0.09485176282051282,
        0.10176282051282051,
        0.09595352564102565,
        0.1015625,
        0.09785657051282051,
        0.09985977564102565,
        0.09845753205128205,
        0.09735576923076923,
        0.09985977564102565,
        0.10086137820512821,
        0.10306490384615384,
        0.09945913461538461,
        0.10026041666666667,
        0.10026041666666667,
        0.10306490384615384,
        0.09775641025641026,
        0.09895833333333333,
        0.10116185897435898,
        0.10026041666666667,
        0.09745592948717949,
        0.09665464743589744,
        0.09805689102564102,
        0.09705528846153846,
        0.1006610576923077,
        0.0992588141025641,
        0.09795673076923077,
        0.10336538461538461,
        0.10226362179487179,
        0.10466746794871795,
        0.09865785256410256,
        0.09745592948717949,
        0.09895833333333333,
        0.10116185897435898,
        0.10176282051282051,
        0.09865785256410256,
        0.10116185897435898,
        0.09955929487179487,
        0.09875801282051282,
        0.10016025641025642,
        0.10026041666666667,
        0.1006610576923077,
        0.09705528846153846,
        0.09515224358974358,
        0.09495192307692307,
        0.10146233974358974,
        0.09865785256410256,
        0.09294871794871795,
        0.09815705128205128,
        0.10536858974358974,
        0.10376602564102565,
        0.10116185897435898,
        0.10126201923076923,
        0.09865785256410256,
        0.09975961538461539,
        0.10256410256410256,
        0.09545272435897435,
        0.09815705128205128,
        0.10276442307692307,
        0.10046073717948718,
        0.10366586538461539,
        0.09715544871794872,
        0.10026041666666667,
        0.0985576923076923,
        0.09945913461538461
    ],
    "valid_accuracies": [
        0.10266426282051282,
        0.09875801282051282,
        0.10136217948717949,
        0.10256410256410256,
        0.09785657051282051,
        0.09875801282051282,
        0.10266426282051282,
        0.10266426282051282,
        0.09785657051282051,
        0.10096153846153846,
        0.10226362179487179,
        0.10296474358974358,
        0.10086137820512821,
        0.10146233974358974,
        0.10226362179487179,
        0.10226362179487179,
        0.09635416666666667,
        0.09775641025641026,
        0.1024639423076923,
        0.10096153846153846,
        0.10026041666666667,
        0.09805689102564102,
        0.10036057692307693,
        0.10296474358974358,
        0.09364983974358974,
        0.09915865384615384,
        0.09915865384615384,
        0.09805689102564102,
        0.09915865384615384,
        0.09825721153846154,
        0.09715544871794872,
        0.09825721153846154,
        0.10256410256410256,
        0.10296474358974358,
        0.10266426282051282,
        0.09805689102564102,
        0.09805689102564102,
        0.09785657051282051,
        0.10106169871794872,
        0.09825721153846154,
        0.10086137820512821,
        0.10176282051282051,
        0.10136217948717949,
        0.10226362179487179,
        0.10266426282051282,
        0.10236378205128205,
        0.10256410256410256,
        0.10146233974358974,
        0.09765625,
        0.0985576923076923,
        0.10116185897435898,
        0.10036057692307693,
        0.10296474358974358,
        0.10086137820512821,
        0.09825721153846154,
        0.0985576923076923,
        0.09875801282051282,
        0.10266426282051282,
        0.09975961538461539,
        0.0985576923076923,
        0.10136217948717949,
        0.09505208333333333,
        0.10176282051282051,
        0.09615384615384616,
        0.10006009615384616,
        0.10026041666666667,
        0.0985576923076923,
        0.10166266025641026,
        0.09785657051282051,
        0.09364983974358974,
        0.10146233974358974,
        0.09805689102564102,
        0.09715544871794872,
        0.10296474358974358,
        0.09975961538461539,
        0.10166266025641026,
        0.10406650641025642,
        0.09875801282051282,
        0.10226362179487179,
        0.09825721153846154,
        0.10226362179487179,
        0.10266426282051282,
        0.10166266025641026,
        0.09825721153846154,
        0.09805689102564102,
        0.10296474358974358,
        0.10256410256410256,
        0.10296474358974358,
        0.10236378205128205,
        0.09635416666666667,
        0.10306490384615384,
        0.09715544871794872,
        0.0985576923076923,
        0.09805689102564102,
        0.10296474358974358,
        0.10226362179487179,
        0.10416666666666667,
        0.10166266025641026,
        0.10266426282051282,
        0.09875801282051282,
        0.10256410256410256
    ],
    "test_accuracies": [
        0.09985977564102565,
        0.09985977564102565,
        0.0999599358974359,
        0.09985977564102565,
        0.10016025641025642,
        0.09985977564102565,
        0.09985977564102565,
        0.10016025641025642,
        0.10016025641025642,
        0.10006009615384616,
        0.09985977564102565,
        0.09985977564102565,
        0.10016025641025642,
        0.09985977564102565,
        0.10016025641025642,
        0.09985977564102565,
        0.10006009615384616,
        0.09985977564102565,
        0.09985977564102565,
        0.10006009615384616,
        0.09985977564102565,
        0.09985977564102565,
        0.0999599358974359,
        0.10006009615384616,
        0.09985977564102565,
        0.10016025641025642,
        0.10016025641025642,
        0.09985977564102565,
        0.10016025641025642,
        0.10016025641025642,
        0.10006009615384616,
        0.10016025641025642,
        0.09985977564102565,
        0.09985977564102565,
        0.09985977564102565,
        0.10016025641025642,
        0.10016025641025642,
        0.10016025641025642,
        0.10016025641025642,
        0.10016025641025642,
        0.10016025641025642,
        0.09985977564102565,
        0.0999599358974359,
        0.10016025641025642,
        0.10016025641025642,
        0.09985977564102565,
        0.09985977564102565,
        0.09985977564102565,
        0.09985977564102565,
        0.10016025641025642,
        0.10006009615384616,
        0.09985977564102565,
        0.10006009615384616,
        0.10016025641025642,
        0.10016025641025642,
        0.10016025641025642,
        0.09985977564102565,
        0.10016025641025642,
        0.09985977564102565,
        0.10016025641025642,
        0.0999599358974359,
        0.10006009615384616,
        0.09985977564102565,
        0.10006009615384616,
        0.10016025641025642,
        0.09985977564102565,
        0.10016025641025642,
        0.09985977564102565,
        0.10016025641025642,
        0.09985977564102565,
        0.09985977564102565,
        0.10016025641025642,
        0.10006009615384616,
        0.10006009615384616,
        0.09985977564102565,
        0.09985977564102565,
        0.10006009615384616,
        0.09985977564102565,
        0.10016025641025642,
        0.10016025641025642,
        0.10016025641025642,
        0.09985977564102565,
        0.09985977564102565,
        0.10016025641025642,
        0.10016025641025642,
        0.09985977564102565,
        0.09985977564102565,
        0.09985977564102565,
        0.09985977564102565,
        0.10006009615384616,
        0.10016025641025642,
        0.10006009615384616,
        0.10016025641025642,
        0.10016025641025642,
        0.09985977564102565,
        0.10016025641025642,
        0.10006009615384616,
        0.09985977564102565,
        0.10016025641025642,
        0.09985977564102565,
        0.09985977564102565
    ],
    "minibatch_train_losses": [
        3.5977001190185547,
        3.5977001190185547,
        125983.3359375,
        125983.3359375,
        160821.296875,
        160821.296875,
        161447.28125,
        161447.28125,
        161445.390625,
        161445.390625,
        161432.65625,
        161432.65625,
        161417.46875,
        161417.46875,
        161400.03125,
        161400.03125,
        161380.296875,
        161380.296875,
        161358.375,
        161358.375,
        161334.21875,
        161334.21875,
        161307.8125,
        161307.8125,
        161279.21875,
        161279.21875,
        161248.515625,
        161248.515625,
        161215.75,
        161215.75,
        161180.84375,
        161180.84375,
        161143.890625,
        161143.890625,
        161104.9375,
        161104.9375,
        161063.984375,
        161063.984375,
        161021.03125,
        161021.03125,
        160976.1875,
        160976.1875,
        320158.5,
        320158.5,
        22667802.0,
        22667802.0,
        23781818.0,
        23781818.0,
        23785498.0,
        23785498.0,
        23777660.0,
        23777660.0,
        23769438.0,
        23769438.0,
        23760962.0,
        23760962.0,
        23752230.0,
        23752230.0,
        23743246.0,
        23743246.0,
        23734012.0,
        23734012.0,
        23724536.0,
        23724536.0,
        23722612.0,
        23722612.0,
        23712848.0,
        23712848.0,
        23702844.0,
        23702844.0,
        23692614.0,
        23692614.0,
        23682152.0,
        23682152.0,
        23671466.0,
        23671466.0,
        23660558.0,
        23660558.0,
        23649428.0,
        23649428.0,
        23638084.0,
        23638084.0,
        23626528.0,
        23626528.0,
        23614760.0,
        23614760.0,
        23602788.0,
        23602788.0,
        23590608.0,
        23590608.0,
        23578232.0,
        23578232.0,
        23565658.0,
        23565658.0,
        23552886.0,
        23552886.0,
        23539924.0,
        23539924.0,
        23526768.0,
        23526768.0,
        23513430.0,
        23513430.0,
        23499906.0,
        23499906.0,
        23486202.0,
        23486202.0,
        23472316.0,
        23472316.0,
        23458256.0,
        23458256.0,
        23444024.0,
        23444024.0,
        23429618.0,
        23429618.0,
        23415046.0,
        23415046.0,
        23400302.0,
        23400302.0,
        23385396.0,
        23385396.0,
        23370328.0,
        23370328.0,
        23355102.0,
        23355102.0,
        23339718.0,
        23339718.0,
        23324178.0,
        23324178.0,
        23321052.0,
        23321052.0,
        23305324.0,
        23305324.0,
        23289452.0,
        23289452.0,
        23273428.0,
        23273428.0,
        23257256.0,
        23257256.0,
        23240946.0,
        23240946.0,
        23224492.0,
        23224492.0,
        23207892.0,
        23207892.0,
        23191154.0,
        23191154.0,
        23174282.0,
        23174282.0,
        23157278.0,
        23157278.0,
        23140140.0,
        23140140.0,
        23122870.0,
        23122870.0,
        23105468.0,
        23105468.0,
        23087940.0,
        23087940.0,
        23070288.0,
        23070288.0,
        23052514.0,
        23052514.0,
        23034616.0,
        23034616.0,
        23016598.0,
        23016598.0,
        22998460.0,
        22998460.0,
        22980208.0,
        22980208.0,
        22961838.0,
        22961838.0,
        22943352.0,
        22943352.0,
        22924756.0,
        22924756.0,
        22906048.0,
        22906048.0,
        22887228.0,
        22887228.0,
        22868306.0,
        22868306.0,
        22849272.0,
        22849272.0,
        22830138.0,
        22830138.0,
        22810898.0,
        22810898.0,
        22791558.0,
        22791558.0,
        22772114.0,
        22772114.0,
        22768218.0,
        22768218.0,
        22748654.0,
        22748654.0,
        22728996.0,
        22728996.0,
        22709242.0,
        22709242.0,
        22689394.0,
        22689394.0,
        22669450.0,
        22669450.0,
        22649416.0,
        22649416.0,
        22629288.0,
        22629288.0,
        22609076.0,
        22609076.0,
        22588772.0,
        22588772.0,
        22568380.0,
        22568380.0,
        22547908.0,
        22547908.0,
        22527344.0,
        22527344.0,
        22506700.0,
        22506700.0,
        22485970.0,
        22485970.0,
        22465164.0,
        22465164.0,
        22444276.0,
        22444276.0,
        22423306.0,
        22423306.0,
        22402260.0,
        22402260.0,
        22381140.0,
        22381140.0,
        22359944.0,
        22359944.0,
        22338674.0,
        22338674.0,
        22317324.0,
        22317324.0,
        22295908.0,
        22295908.0,
        22274418.0,
        22274418.0,
        22252860.0,
        22252860.0,
        22231230.0,
        22231230.0,
        22209534.0,
        22209534.0,
        22187768.0,
        22187768.0,
        22165938.0,
        22165938.0,
        22144042.0,
        22144042.0,
        22122082.0,
        22122082.0,
        22117684.0,
        22117684.0,
        22095646.0,
        22095646.0,
        22073548.0,
        22073548.0,
        22051388.0,
        22051388.0,
        22029166.0,
        22029166.0,
        22006886.0,
        22006886.0,
        21984548.0,
        21984548.0,
        21962150.0,
        21962150.0,
        21939698.0,
        21939698.0,
        21917188.0,
        21917188.0,
        21894622.0,
        21894622.0,
        21872002.0,
        21872002.0,
        21849326.0,
        21849326.0,
        21826600.0,
        21826600.0,
        21803822.0,
        21803822.0,
        21780996.0,
        21780996.0,
        21758114.0,
        21758114.0,
        21735186.0,
        21735186.0,
        21712206.0,
        21712206.0,
        21689184.0,
        21689184.0,
        21666110.0,
        21666110.0,
        21642988.0,
        21642988.0,
        21619822.0,
        21619822.0,
        21596614.0,
        21596614.0,
        21573356.0,
        21573356.0,
        21550060.0,
        21550060.0,
        21526720.0,
        21526720.0,
        21503336.0,
        21503336.0,
        21479910.0,
        21479910.0,
        21456446.0,
        21456446.0,
        21432940.0,
        21432940.0,
        21409394.0,
        21409394.0,
        21404680.0,
        21404680.0,
        21381086.0,
        21381086.0,
        21357458.0,
        21357458.0,
        21333788.0,
        21333788.0,
        21310086.0,
        21310086.0,
        21286344.0,
        21286344.0,
        21262568.0,
        21262568.0,
        21238760.0,
        21238760.0,
        21214916.0,
        21214916.0,
        21191040.0,
        21191040.0,
        21167126.0,
        21167126.0,
        21143182.0,
        21143182.0,
        21119206.0,
        21119206.0,
        21095200.0,
        21095200.0,
        21071160.0,
        21071160.0,
        21047092.0,
        21047092.0,
        21022994.0,
        21022994.0,
        20998870.0,
        20998870.0,
        20974716.0,
        20974716.0,
        20950534.0,
        20950534.0,
        20926324.0,
        20926324.0,
        20902084.0,
        20902084.0,
        20877820.0,
        20877820.0,
        20853534.0,
        20853534.0,
        20829218.0,
        20829218.0,
        20804882.0,
        20804882.0,
        20780516.0,
        20780516.0,
        20756130.0,
        20756130.0,
        20731722.0,
        20731722.0,
        20707288.0,
        20707288.0,
        20682830.0,
        20682830.0,
        20658356.0,
        20658356.0,
        20653458.0,
        20653458.0,
        20628954.0,
        20628954.0,
        20604432.0,
        20604432.0,
        20579888.0,
        20579888.0,
        20555328.0,
        20555328.0,
        20530746.0,
        20530746.0,
        20506144.0,
        20506144.0,
        20481526.0,
        20481526.0,
        20456888.0,
        20456888.0,
        20432236.0,
        20432236.0,
        20407562.0,
        20407562.0,
        20382876.0,
        20382876.0,
        20358168.0,
        20358168.0,
        20333448.0,
        20333448.0,
        20308710.0,
        20308710.0,
        20283960.0,
        20283960.0,
        20259192.0,
        20259192.0,
        20234410.0,
        20234410.0,
        20209618.0,
        20209618.0,
        20184810.0,
        20184810.0,
        20159992.0,
        20159992.0,
        20135158.0,
        20135158.0,
        20110314.0,
        20110314.0,
        20085458.0,
        20085458.0,
        20060588.0,
        20060588.0,
        20035712.0,
        20035712.0,
        20010820.0,
        20010820.0,
        19985922.0,
        19985922.0,
        19961012.0,
        19961012.0,
        19936088.0,
        19936088.0,
        19911162.0,
        19911162.0,
        19886222.0,
        19886222.0,
        19881236.0,
        19881236.0,
        19856290.0,
        19856290.0,
        19831328.0,
        19831328.0,
        19806368.0,
        19806368.0,
        19781396.0,
        19781396.0,
        19756418.0,
        19756418.0,
        19731432.0,
        19731432.0,
        19706440.0,
        19706440.0,
        19681442.0,
        19681442.0,
        19656440.0,
        19656440.0,
        19631426.0,
        19631426.0,
        19606416.0,
        19606416.0,
        19581398.0,
        19581398.0,
        19556376.0,
        19556376.0,
        19531342.0,
        19531342.0,
        19506312.0,
        19506312.0,
        19481278.0,
        19481278.0,
        19456240.0,
        19456240.0,
        19431198.0,
        19431198.0,
        19406152.0,
        19406152.0,
        19381106.0,
        19381106.0,
        19356054.0,
        19356054.0,
        19331008.0,
        19331008.0,
        19305950.0,
        19305950.0,
        19280898.0,
        19280898.0,
        19255846.0,
        19255846.0,
        19230788.0,
        19230788.0,
        19205736.0,
        19205736.0,
        19180676.0,
        19180676.0,
        19155618.0,
        19155618.0,
        19130568.0,
        19130568.0,
        19105508.0,
        19105508.0,
        19100496.0,
        19100496.0,
        19075444.0,
        19075444.0,
        19050390.0,
        19050390.0,
        19025342.0,
        19025342.0,
        19000288.0,
        19000288.0,
        18975238.0,
        18975238.0,
        18950194.0,
        18950194.0,
        18925152.0,
        18925152.0,
        18900108.0,
        18900108.0,
        18875072.0,
        18875072.0,
        18850038.0,
        18850038.0,
        18825008.0,
        18825008.0,
        18799978.0,
        18799978.0,
        18774952.0,
        18774952.0,
        18749932.0,
        18749932.0,
        18724916.0,
        18724916.0,
        18699904.0,
        18699904.0,
        18674898.0,
        18674898.0,
        18649896.0,
        18649896.0,
        18624898.0,
        18624898.0,
        18599906.0,
        18599906.0,
        18574922.0,
        18574922.0,
        18549944.0,
        18549944.0,
        18524966.0,
        18524966.0,
        18500000.0,
        18500000.0,
        18475040.0,
        18475040.0,
        18450084.0,
        18450084.0,
        18425136.0,
        18425136.0,
        18400194.0,
        18400194.0,
        18375260.0,
        18375260.0,
        18350338.0,
        18350338.0,
        18325416.0,
        18325416.0,
        18320432.0,
        18320432.0,
        18295522.0,
        18295522.0,
        18270622.0,
        18270622.0,
        18245734.0,
        18245734.0,
        18220846.0,
        18220846.0,
        18195968.0,
        18195968.0,
        18171100.0,
        18171100.0,
        18146246.0,
        18146246.0,
        18121394.0,
        18121394.0,
        18096554.0,
        18096554.0,
        18071720.0,
        18071720.0,
        18046902.0,
        18046902.0,
        18022088.0,
        18022088.0,
        17997292.0,
        17997292.0,
        17972502.0,
        17972502.0,
        17947722.0,
        17947722.0,
        17922948.0,
        17922948.0,
        17898190.0,
        17898190.0,
        17873440.0,
        17873440.0,
        17848706.0,
        17848706.0,
        17823982.0,
        17823982.0,
        17799266.0,
        17799266.0,
        17774562.0,
        17774562.0,
        17749870.0,
        17749870.0,
        17725186.0,
        17725186.0,
        17700518.0,
        17700518.0,
        17675862.0,
        17675862.0,
        17651222.0,
        17651222.0,
        17626590.0,
        17626590.0,
        17601970.0,
        17601970.0,
        17577366.0,
        17577366.0,
        17552770.0,
        17552770.0,
        17547854.0,
        17547854.0,
        17523272.0,
        17523272.0,
        17498706.0,
        17498706.0,
        17474156.0,
        17474156.0,
        17449620.0,
        17449620.0,
        17425098.0,
        17425098.0,
        17400588.0,
        17400588.0,
        17376090.0,
        17376090.0,
        17351606.0,
        17351606.0,
        17327138.0,
        17327138.0,
        17302680.0,
        17302680.0,
        17278240.0,
        17278240.0,
        17253816.0,
        17253816.0,
        17229404.0,
        17229404.0,
        17205010.0,
        17205010.0,
        17180628.0,
        17180628.0,
        17156260.0,
        17156260.0,
        17131908.0,
        17131908.0,
        17107574.0,
        17107574.0,
        17083250.0,
        17083250.0,
        17058946.0,
        17058946.0,
        17034658.0,
        17034658.0,
        17010386.0,
        17010386.0,
        16986128.0,
        16986128.0,
        16961888.0,
        16961888.0,
        16937662.0,
        16937662.0,
        16913450.0,
        16913450.0,
        16889254.0,
        16889254.0,
        16865074.0,
        16865074.0,
        16840910.0,
        16840910.0,
        16816762.0,
        16816762.0,
        16792630.0,
        16792630.0,
        16787806.0,
        16787806.0,
        16763694.0,
        16763694.0,
        16739601.0,
        16739601.0,
        16715524.0,
        16715524.0,
        16691467.0,
        16691467.0,
        16667422.0,
        16667422.0,
        16643400.0,
        16643400.0,
        16619393.0,
        16619393.0,
        16595401.0,
        16595401.0,
        16571430.0,
        16571430.0,
        16547477.0,
        16547477.0,
        16523539.0,
        16523539.0,
        16499622.0,
        16499622.0,
        16475721.0,
        16475721.0,
        16451839.0,
        16451839.0,
        16427976.0,
        16427976.0,
        16404133.0,
        16404133.0,
        16380308.0,
        16380308.0,
        16356502.0,
        16356502.0,
        16332718.0,
        16332718.0,
        16308950.0,
        16308950.0,
        16285200.0,
        16285200.0,
        16261466.0,
        16261466.0,
        16237755.0,
        16237755.0,
        16214060.0,
        16214060.0,
        16190386.0,
        16190386.0,
        16166729.0,
        16166729.0,
        16143092.0,
        16143092.0,
        16119475.0,
        16119475.0,
        16095877.0,
        16095877.0,
        16072297.0,
        16072297.0,
        16048741.0,
        16048741.0,
        16044031.0,
        16044031.0,
        16020494.0,
        16020494.0,
        15996979.0,
        15996979.0,
        15973482.0,
        15973482.0,
        15950005.0,
        15950005.0,
        15926544.0,
        15926544.0,
        15903111.0,
        15903111.0,
        15879695.0,
        15879695.0,
        15856298.0,
        15856298.0,
        15832923.0,
        15832923.0,
        15809566.0,
        15809566.0,
        15786231.0,
        15786231.0,
        15762915.0,
        15762915.0,
        15739621.0,
        15739621.0,
        15716348.0,
        15716348.0,
        15693095.0,
        15693095.0,
        15669859.0,
        15669859.0,
        15646646.0,
        15646646.0,
        15623454.0,
        15623454.0,
        15600287.0,
        15600287.0,
        15577137.0,
        15577137.0,
        15554009.0,
        15554009.0,
        15530900.0,
        15530900.0,
        15507812.0,
        15507812.0,
        15484749.0,
        15484749.0,
        15461705.0,
        15461705.0,
        15438682.0,
        15438682.0,
        15415678.0,
        15415678.0,
        15392697.0,
        15392697.0,
        15369742.0,
        15369742.0,
        15346803.0,
        15346803.0,
        15323889.0,
        15323889.0,
        15319310.0,
        15319310.0,
        15296418.0,
        15296418.0,
        15273548.0,
        15273548.0,
        15250703.0,
        15250703.0,
        15227879.0,
        15227879.0,
        15205075.0,
        15205075.0,
        15182296.0,
        15182296.0,
        15159537.0,
        15159537.0,
        15136800.0,
        15136800.0,
        15114084.0,
        15114084.0,
        15091391.0,
        15091391.0,
        15068720.0,
        15068720.0,
        15046071.0,
        15046071.0,
        15023446.0,
        15023446.0,
        15000843.0,
        15000843.0,
        14978261.0,
        14978261.0,
        14955701.0,
        14955701.0,
        14933165.0,
        14933165.0,
        14910649.0,
        14910649.0,
        14888157.0,
        14888157.0,
        14865687.0,
        14865687.0,
        14843241.0,
        14843241.0,
        14820818.0,
        14820818.0,
        14798414.0,
        14798414.0,
        14776034.0,
        14776034.0,
        14753678.0,
        14753678.0,
        14731347.0,
        14731347.0,
        14709036.0,
        14709036.0,
        14686747.0,
        14686747.0,
        14664481.0,
        14664481.0,
        14642241.0,
        14642241.0,
        14620023.0,
        14620023.0,
        14615582.0,
        14615582.0,
        14593390.0,
        14593390.0,
        14571220.0,
        14571220.0,
        14549077.0,
        14549077.0,
        14526954.0,
        14526954.0,
        14504854.0,
        14504854.0,
        14482779.0,
        14482779.0,
        14460727.0,
        14460727.0,
        14438696.0,
        14438696.0,
        14416692.0,
        14416692.0,
        14394710.0,
        14394710.0,
        14372749.0,
        14372749.0,
        14350813.0,
        14350813.0,
        14328899.0,
        14328899.0,
        14307013.0,
        14307013.0,
        14285148.0,
        14285148.0,
        14263304.0,
        14263304.0,
        14241485.0,
        14241485.0,
        14219690.0,
        14219690.0,
        14197919.0,
        14197919.0,
        14176173.0,
        14176173.0,
        14154446.0,
        14154446.0,
        14132746.0,
        14132746.0,
        14111071.0,
        14111071.0,
        14089418.0,
        14089418.0,
        14067788.0,
        14067788.0,
        14046181.0,
        14046181.0,
        14024600.0,
        14024600.0,
        14003043.0,
        14003043.0,
        13981507.0,
        13981507.0,
        13959997.0,
        13959997.0,
        13938512.0,
        13938512.0,
        13934217.0,
        13934217.0,
        13912759.0,
        13912759.0,
        13891327.0,
        13891327.0,
        13869916.0,
        13869916.0,
        13848531.0,
        13848531.0,
        13827171.0,
        13827171.0,
        13805831.0,
        13805831.0,
        13784518.0,
        13784518.0,
        13763229.0,
        13763229.0,
        13741964.0,
        13741964.0,
        13720720.0,
        13720720.0,
        13699504.0,
        13699504.0,
        13678313.0,
        13678313.0,
        13657142.0,
        13657142.0,
        13635998.0,
        13635998.0,
        13614874.0,
        13614874.0,
        13593783.0,
        13593783.0,
        13572710.0,
        13572710.0,
        13551662.0,
        13551662.0,
        13530638.0,
        13530638.0,
        13509640.0,
        13509640.0,
        13488664.0,
        13488664.0,
        13467713.0,
        13467713.0,
        13446788.0,
        13446788.0,
        13425884.0,
        13425884.0,
        13405007.0,
        13405007.0,
        13384154.0,
        13384154.0,
        13363326.0,
        13363326.0,
        13342521.0,
        13342521.0,
        13321740.0,
        13321740.0,
        13300984.0,
        13300984.0,
        13280255.0,
        13280255.0,
        13276112.0,
        13276112.0,
        13255409.0,
        13255409.0,
        13234731.0,
        13234731.0,
        13214080.0,
        13214080.0,
        13193450.0,
        13193450.0,
        13172848.0,
        13172848.0,
        13152268.0,
        13152268.0,
        13131714.0,
        13131714.0,
        13111183.0,
        13111183.0,
        13090677.0,
        13090677.0,
        13070197.0,
        13070197.0,
        13049741.0,
        13049741.0,
        13029307.0,
        13029307.0,
        13008902.0,
        13008902.0,
        12988517.0,
        12988517.0,
        12968160.0,
        12968160.0,
        12947826.0,
        12947826.0,
        12927515.0,
        12927515.0,
        12907233.0,
        12907233.0,
        12886972.0,
        12886972.0,
        12866738.0,
        12866738.0,
        12846529.0,
        12846529.0,
        12826341.0,
        12826341.0,
        12806181.0,
        12806181.0,
        12786042.0,
        12786042.0,
        12765932.0,
        12765932.0,
        12745845.0,
        12745845.0,
        12725781.0,
        12725781.0,
        12705743.0,
        12705743.0,
        12685731.0,
        12685731.0,
        12665741.0,
        12665741.0,
        12645779.0,
        12645779.0,
        12641789.0,
        12641789.0,
        12621853.0,
        12621853.0,
        12601946.0,
        12601946.0,
        12582060.0,
        12582060.0,
        12562201.0,
        12562201.0,
        12542364.0,
        12542364.0,
        12522552.0,
        12522552.0,
        12502767.0,
        12502767.0,
        12483006.0,
        12483006.0,
        12463269.0,
        12463269.0,
        12443557.0,
        12443557.0,
        12423870.0,
        12423870.0,
        12404207.0,
        12404207.0,
        12384570.0,
        12384570.0,
        12364957.0,
        12364957.0,
        12345368.0,
        12345368.0,
        12325807.0,
        12325807.0,
        12306267.0,
        12306267.0,
        12286751.0,
        12286751.0,
        12267264.0,
        12267264.0,
        12247798.0,
        12247798.0,
        12228358.0,
        12228358.0,
        12208943.0,
        12208943.0,
        12189552.0,
        12189552.0,
        12170186.0,
        12170186.0,
        12150843.0,
        12150843.0,
        12131528.0,
        12131528.0,
        12112238.0,
        12112238.0,
        12092969.0,
        12092969.0,
        12073726.0,
        12073726.0,
        12054509.0,
        12054509.0,
        12035316.0,
        12035316.0,
        12031481.0,
        12031481.0,
        12012317.0,
        12012317.0,
        11993179.0,
        11993179.0,
        11974065.0,
        11974065.0,
        11954973.0,
        11954973.0,
        11935911.0,
        11935911.0,
        11916870.0,
        11916870.0,
        11897855.0,
        11897855.0,
        11878863.0,
        11878863.0,
        11859899.0,
        11859899.0,
        11840958.0,
        11840958.0,
        11822041.0,
        11822041.0,
        11803148.0,
        11803148.0,
        11784281.0,
        11784281.0,
        11765438.0,
        11765438.0,
        11746619.0,
        11746619.0,
        11727827.0,
        11727827.0,
        11709058.0,
        11709058.0,
        11690314.0,
        11690314.0,
        11671592.0,
        11671592.0,
        11652898.0,
        11652898.0,
        11634228.0,
        11634228.0,
        11615581.0,
        11615581.0,
        11596959.0,
        11596959.0,
        11578362.0,
        11578362.0,
        11559789.0,
        11559789.0,
        11541242.0,
        11541242.0,
        11522720.0,
        11522720.0,
        11504222.0,
        11504222.0,
        11485747.0,
        11485747.0,
        11467298.0,
        11467298.0,
        11448872.0,
        11448872.0,
        11445191.0,
        11445191.0,
        11426794.0,
        11426794.0,
        11408423.0,
        11408423.0,
        11390076.0,
        11390076.0,
        11371754.0,
        11371754.0,
        11353455.0,
        11353455.0,
        11335184.0,
        11335184.0,
        11316934.0,
        11316934.0,
        11298710.0,
        11298710.0,
        11280509.0,
        11280509.0,
        11262333.0,
        11262333.0,
        11244184.0,
        11244184.0,
        11226055.0,
        11226055.0,
        11207954.0,
        11207954.0,
        11189875.0,
        11189875.0,
        11171822.0,
        11171822.0,
        11153791.0,
        11153791.0,
        11135786.0,
        11135786.0,
        11117806.0,
        11117806.0,
        11099850.0,
        11099850.0,
        11081918.0,
        11081918.0,
        11064010.0,
        11064010.0,
        11046127.0,
        11046127.0,
        11028267.0,
        11028267.0,
        11010432.0,
        11010432.0,
        10992623.0,
        10992623.0,
        10974836.0,
        10974836.0,
        10957075.0,
        10957075.0,
        10939337.0,
        10939337.0,
        10921622.0,
        10921622.0,
        10903932.0,
        10903932.0,
        10886268.0,
        10886268.0,
        10882737.0,
        10882737.0,
        10865100.0,
        10865100.0,
        10847488.0,
        10847488.0,
        10829900.0,
        10829900.0,
        10812336.0,
        10812336.0,
        10794795.0,
        10794795.0,
        10777280.0,
        10777280.0,
        10759788.0,
        10759788.0,
        10742322.0,
        10742322.0,
        10724876.0,
        10724876.0,
        10707457.0,
        10707457.0,
        10690063.0,
        10690063.0,
        10672691.0,
        10672691.0,
        10655344.0,
        10655344.0,
        10638020.0,
        10638020.0,
        10620720.0,
        10620720.0,
        10603446.0,
        10603446.0,
        10586194.0,
        10586194.0,
        10568966.0,
        10568966.0,
        10551762.0,
        10551762.0,
        10534583.0,
        10534583.0,
        10517428.0,
        10517428.0,
        10500293.0,
        10500293.0,
        10483186.0,
        10483186.0,
        10466102.0,
        10466102.0,
        10449042.0,
        10449042.0,
        10432005.0,
        10432005.0,
        10414991.0,
        10414991.0,
        10398004.0,
        10398004.0,
        10381037.0,
        10381037.0,
        10364095.0,
        10364095.0,
        10347177.0,
        10347177.0,
        10343796.0,
        10343796.0,
        10326907.0,
        10326907.0,
        10310040.0,
        10310040.0,
        10293199.0,
        10293199.0,
        10276381.0,
        10276381.0,
        10259585.0,
        10259585.0,
        10242814.0,
        10242814.0,
        10226067.0,
        10226067.0,
        10209345.0,
        10209345.0,
        10192644.0,
        10192644.0,
        10175968.0,
        10175968.0,
        10159314.0,
        10159314.0,
        10142684.0,
        10142684.0,
        10126078.0,
        10126078.0,
        10109495.0,
        10109495.0,
        10092936.0,
        10092936.0,
        10076402.0,
        10076402.0,
        10059889.0,
        10059889.0,
        10043400.0,
        10043400.0,
        10026935.0,
        10026935.0,
        10010492.0,
        10010492.0,
        9994074.0,
        9994074.0,
        9977679.0,
        9977679.0,
        9961308.0,
        9961308.0,
        9944959.0,
        9944959.0,
        9928634.0,
        9928634.0,
        9912332.0,
        9912332.0,
        9896052.0,
        9896052.0,
        9879796.0,
        9879796.0,
        9863565.0,
        9863565.0,
        9847356.0,
        9847356.0,
        9831169.0,
        9831169.0,
        9827936.0,
        9827936.0,
        9811779.0,
        9811779.0,
        9795643.0,
        9795643.0,
        9779532.0,
        9779532.0,
        9763443.0,
        9763443.0,
        9747378.0,
        9747378.0,
        9731337.0,
        9731337.0,
        9715316.0,
        9715316.0,
        9699319.0,
        9699319.0,
        9683347.0,
        9683347.0,
        9667397.0,
        9667397.0,
        9651470.0,
        9651470.0,
        9635566.0,
        9635566.0,
        9619684.0,
        9619684.0,
        9603826.0,
        9603826.0,
        9587990.0,
        9587990.0,
        9572179.0,
        9572179.0,
        9556389.0,
        9556389.0,
        9540622.0,
        9540622.0,
        9524877.0,
        9524877.0,
        9509158.0,
        9509158.0,
        9493458.0,
        9493458.0,
        9477784.0,
        9477784.0,
        9462129.0,
        9462129.0,
        9446502.0,
        9446502.0,
        9430892.0,
        9430892.0,
        9415308.0,
        9415308.0,
        9399746.0,
        9399746.0,
        9384207.0,
        9384207.0,
        9368691.0,
        9368691.0,
        9353197.0,
        9353197.0,
        9337724.0,
        9337724.0,
        9334633.0,
        9334633.0,
        9319191.0,
        9319191.0,
        9303768.0,
        9303768.0,
        9288370.0,
        9288370.0,
        9272992.0,
        9272992.0,
        9257638.0,
        9257638.0,
        9242306.0,
        9242306.0,
        9226998.0,
        9226998.0,
        9211709.0,
        9211709.0,
        9196445.0,
        9196445.0,
        9181205.0,
        9181205.0,
        9165983.0,
        9165983.0,
        9150788.0,
        9150788.0,
        9135612.0,
        9135612.0,
        9120461.0,
        9120461.0,
        9105329.0,
        9105329.0,
        9090220.0,
        9090220.0,
        9075135.0,
        9075135.0,
        9060071.0,
        9060071.0,
        9045029.0,
        9045029.0,
        9030011.0,
        9030011.0,
        9015013.0,
        9015013.0,
        9000039.0,
        9000039.0,
        8985085.0,
        8985085.0,
        8970155.0,
        8970155.0,
        8955246.0,
        8955246.0,
        8940360.0,
        8940360.0,
        8925497.0,
        8925497.0,
        8910654.0,
        8910654.0,
        8895833.0,
        8895833.0,
        8881035.0,
        8881035.0,
        8866258.0,
        8866258.0,
        8863304.0,
        8863304.0,
        8848554.0,
        8848554.0,
        8833827.0,
        8833827.0,
        8819119.0,
        8819119.0,
        8804436.0,
        8804436.0,
        8789773.0,
        8789773.0,
        8775132.0,
        8775132.0,
        8760512.0,
        8760512.0,
        8745916.0,
        8745916.0,
        8731339.0,
        8731339.0,
        8716787.0,
        8716787.0,
        8702253.0,
        8702253.0,
        8687742.0,
        8687742.0,
        8673255.0,
        8673255.0,
        8658787.0,
        8658787.0,
        8644341.0,
        8644341.0,
        8629917.0,
        8629917.0,
        8615514.0,
        8615514.0,
        8601134.0,
        8601134.0,
        8586775.0,
        8586775.0,
        8572437.0,
        8572437.0,
        8558120.0,
        8558120.0,
        8543826.0,
        8543826.0,
        8529553.0,
        8529553.0,
        8515301.0,
        8515301.0,
        8501070.0,
        8501070.0,
        8486861.0,
        8486861.0,
        8472673.0,
        8472673.0,
        8458507.0,
        8458507.0,
        8444362.0,
        8444362.0,
        8430238.0,
        8430238.0,
        8416135.0,
        8416135.0,
        8413317.0,
        8413317.0,
        8399240.0,
        8399240.0,
        8385183.5,
        8385183.5,
        8371150.5,
        8371150.5,
        8357135.5,
        8357135.5,
        8343142.5,
        8343142.5,
        8329173.5,
        8329173.5,
        8315222.5,
        8315222.5,
        8301292.5,
        8301292.5,
        8287386.0,
        8287386.0,
        8273497.5,
        8273497.5,
        8259632.0,
        8259632.0,
        8245787.5,
        8245787.5,
        8231963.0,
        8231963.0,
        8218159.5,
        8218159.5,
        8204378.5,
        8204378.5,
        8190616.0,
        8190616.0,
        8176876.5,
        8176876.5,
        8163156.5,
        8163156.5,
        8149457.5,
        8149457.5,
        8135780.0,
        8135780.0,
        8122122.5,
        8122122.5,
        8108486.0,
        8108486.0,
        8094871.0,
        8094871.0,
        8081276.5,
        8081276.5,
        8067701.0,
        8067701.0,
        8054148.0,
        8054148.0,
        8040615.0,
        8040615.0,
        8027103.0,
        8027103.0,
        8013611.5,
        8013611.5,
        8000140.0,
        8000140.0,
        7986689.5,
        7986689.5,
        7984002.0,
        7984002.0,
        7970576.5,
        7970576.5,
        7957171.0,
        7957171.0,
        7943786.0,
        7943786.0,
        7930421.0,
        7930421.0,
        7917078.5,
        7917078.5,
        7903752.0,
        7903752.0,
        7890450.5,
        7890450.5,
        7877168.0,
        7877168.0,
        7863905.0,
        7863905.0,
        7850662.5,
        7850662.5,
        7837442.0,
        7837442.0,
        7824240.0,
        7824240.0,
        7811058.5,
        7811058.5,
        7797896.5,
        7797896.5,
        7784756.5,
        7784756.5,
        7771635.5,
        7771635.5,
        7758534.0,
        7758534.0,
        7745454.5,
        7745454.5,
        7732395.0,
        7732395.0,
        7719354.0,
        7719354.0,
        7706332.5,
        7706332.5,
        7693334.0,
        7693334.0,
        7680353.0,
        7680353.0,
        7667393.0,
        7667393.0,
        7654453.0,
        7654453.0,
        7641533.0,
        7641533.0,
        7628632.5,
        7628632.5,
        7615753.0,
        7615753.0,
        7602891.5,
        7602891.5,
        7590051.0,
        7590051.0,
        7577230.5,
        7577230.5,
        7574668.5,
        7574668.5,
        7561870.5,
        7561870.5,
        7549095.0,
        7549095.0,
        7536336.5,
        7536336.5,
        7523598.0,
        7523598.0,
        7510880.5,
        7510880.5,
        7498182.5,
        7498182.5,
        7485503.5,
        7485503.5,
        7472845.5,
        7472845.5,
        7460205.5,
        7460205.5,
        7447584.5,
        7447584.5,
        7434984.5,
        7434984.5,
        7422404.5,
        7422404.5,
        7409842.5,
        7409842.5,
        7397302.0,
        7397302.0,
        7384779.5,
        7384779.5,
        7372276.0,
        7372276.0,
        7359793.0,
        7359793.0,
        7347329.0,
        7347329.0,
        7334883.5,
        7334883.5,
        7322459.0,
        7322459.0,
        7310052.5,
        7310052.5,
        7297666.5,
        7297666.5,
        7285299.5,
        7285299.5,
        7272950.5,
        7272950.5,
        7260622.5,
        7260622.5,
        7248312.5,
        7248312.5,
        7236022.5,
        7236022.5,
        7223751.0,
        7223751.0,
        7211499.0,
        7211499.0,
        7199266.5,
        7199266.5,
        7187051.5,
        7187051.5,
        7184612.0,
        7184612.0,
        7172421.5,
        7172421.5,
        7160249.5,
        7160249.5,
        7148096.5,
        7148096.5,
        7135962.5,
        7135962.5,
        7123848.5,
        7123848.5,
        7111751.5,
        7111751.5,
        7099675.0,
        7099675.0,
        7087616.5,
        7087616.5,
        7075578.0,
        7075578.0,
        7063557.5,
        7063557.5,
        7051555.5,
        7051555.5,
        7039573.5,
        7039573.5,
        7027609.0,
        7027609.0,
        7015663.5,
        7015663.5,
        7003737.0,
        7003737.0,
        6991830.5,
        6991830.5,
        6979940.0,
        6979940.0,
        6968071.0,
        6968071.0,
        6956219.0,
        6956219.0,
        6944386.0,
        6944386.0,
        6932572.5,
        6932572.5,
        6920776.5,
        6920776.5,
        6908998.5,
        6908998.5,
        6897240.0,
        6897240.0,
        6885499.0,
        6885499.0,
        6873777.5,
        6873777.5,
        6862075.5,
        6862075.5,
        6850390.5,
        6850390.5,
        6838723.0,
        6838723.0,
        6827075.5,
        6827075.5,
        6815445.5,
        6815445.5,
        6813122.0,
        6813122.0,
        6801514.0,
        6801514.0,
        6789925.5,
        6789925.5,
        6778353.0,
        6778353.0,
        6766801.5,
        6766801.5,
        6755266.5,
        6755266.5,
        6743750.5,
        6743750.5,
        6732252.0,
        6732252.0,
        6720772.5,
        6720772.5,
        6709310.0,
        6709310.0,
        6697866.0,
        6697866.0,
        6686441.0,
        6686441.0,
        6675033.5,
        6675033.5,
        6663644.0,
        6663644.0,
        6652273.0,
        6652273.0,
        6640920.0,
        6640920.0,
        6629584.0,
        6629584.0,
        6618266.5,
        6618266.5,
        6606967.0,
        6606967.0,
        6595686.0,
        6595686.0,
        6584422.0,
        6584422.0,
        6573176.5,
        6573176.5,
        6561948.5,
        6561948.5,
        6550738.5,
        6550738.5,
        6539547.0,
        6539547.0,
        6528372.0,
        6528372.0,
        6517214.5,
        6517214.5,
        6506076.5,
        6506076.5,
        6494955.5,
        6494955.5,
        6483851.0,
        6483851.0,
        6472765.0,
        6472765.0,
        6461697.5,
        6461697.5,
        6459486.0,
        6459486.0,
        6448439.0,
        6448439.0,
        6437409.0,
        6437409.0,
        6426396.0,
        6426396.0,
        6415402.0,
        6415402.0,
        6404425.0,
        6404425.0,
        6393465.5,
        6393465.5,
        6382523.0,
        6382523.0,
        6371599.0,
        6371599.0,
        6360691.5,
        6360691.5,
        6349802.0,
        6349802.0,
        6338930.0,
        6338930.0,
        6328074.5,
        6328074.5,
        6317237.0,
        6317237.0,
        6306417.5,
        6306417.5,
        6295613.5,
        6295613.5,
        6284828.5,
        6284828.5,
        6274060.0,
        6274060.0,
        6263308.5,
        6263308.5,
        6252574.5,
        6252574.5,
        6241858.0,
        6241858.0,
        6231158.0,
        6231158.0,
        6220475.5,
        6220475.5,
        6209809.5,
        6209809.5,
        6199161.5,
        6199161.5,
        6188529.5,
        6188529.5,
        6177915.0,
        6177915.0,
        6167318.0,
        6167318.0,
        6156737.5,
        6156737.5,
        6146175.0,
        6146175.0,
        6135627.5,
        6135627.5,
        6125098.0,
        6125098.0,
        6122994.5,
        6122994.5,
        6112484.5,
        6112484.5,
        6101993.5,
        6101993.5,
        6091517.5,
        6091517.5,
        6081059.0,
        6081059.0,
        6070617.5,
        6070617.5,
        6060192.0,
        6060192.0,
        6049783.5,
        6049783.5,
        6039392.5,
        6039392.5,
        6029017.5,
        6029017.5,
        6018659.0,
        6018659.0,
        6008318.0,
        6008318.0,
        5997993.0,
        5997993.0,
        5987685.0,
        5987685.0,
        5977392.5,
        5977392.5,
        5967118.5,
        5967118.5,
        5956859.0,
        5956859.0,
        5946617.5,
        5946617.5,
        5936392.0,
        5936392.0,
        5926183.0,
        5926183.0,
        5915990.5,
        5915990.5,
        5905814.0,
        5905814.0,
        5895655.0,
        5895655.0,
        5885511.0,
        5885511.0,
        5875384.5,
        5875384.5,
        5865274.5,
        5865274.5,
        5855179.5,
        5855179.5,
        5845102.5,
        5845102.5,
        5835040.0,
        5835040.0,
        5824995.0,
        5824995.0,
        5814966.0,
        5814966.0,
        5804953.0,
        5804953.0,
        5802952.0,
        5802952.0,
        5792958.0,
        5792958.0,
        5782982.0,
        5782982.0,
        5773020.0,
        5773020.0,
        5763075.5,
        5763075.5,
        5753146.5,
        5753146.5,
        5743233.0,
        5743233.0,
        5733337.0,
        5733337.0,
        5723456.0,
        5723456.0,
        5713590.5,
        5713590.5,
        5703742.0,
        5703742.0,
        5693909.5,
        5693909.5,
        5684093.0,
        5684093.0,
        5674292.5,
        5674292.5,
        5664507.5,
        5664507.5,
        5654738.0,
        5654738.0,
        5644984.5,
        5644984.5,
        5635247.5,
        5635247.5,
        5625526.0,
        5625526.0,
        5615820.0,
        5615820.0,
        5606129.5,
        5606129.5,
        5596454.5,
        5596454.5,
        5586796.0,
        5586796.0,
        5577153.5,
        5577153.5,
        5567525.5,
        5567525.5,
        5557914.0,
        5557914.0,
        5548318.5,
        5548318.5,
        5538737.5,
        5538737.5,
        5529173.5,
        5529173.5,
        5519623.5,
        5519623.5,
        5510090.0,
        5510090.0,
        5500572.5,
        5500572.5,
        5498670.0,
        5498670.0,
        5489170.5,
        5489170.5,
        5479686.5,
        5479686.5,
        5470218.0,
        5470218.0,
        5460765.5,
        5460765.5,
        5451326.5,
        5451326.5,
        5441904.5,
        5441904.5,
        5432498.0,
        5432498.0,
        5423106.0,
        5423106.0,
        5413729.5,
        5413729.5,
        5404368.5,
        5404368.5,
        5395024.0,
        5395024.0,
        5385693.0,
        5385693.0,
        5376377.5,
        5376377.5,
        5367078.0,
        5367078.0,
        5357792.0,
        5357792.0,
        5348523.0,
        5348523.0,
        5339269.0,
        5339269.0,
        5330027.5,
        5330027.5,
        5320805.5,
        5320805.5,
        5311595.5,
        5311595.5,
        5302400.5,
        5302400.5,
        5293221.5,
        5293221.5,
        5284058.5,
        5284058.5,
        5274909.5,
        5274909.5,
        5265775.0,
        5265775.0,
        5256655.5,
        5256655.5,
        5247551.5,
        5247551.5,
        5238462.0,
        5238462.0,
        5229388.5,
        5229388.5,
        5220328.5,
        5220328.5,
        5211283.5,
        5211283.5,
        5209476.5,
        5209476.5,
        5200449.5,
        5200449.5,
        5191438.0,
        5191438.0,
        5182439.5,
        5182439.5,
        5173458.0,
        5173458.0,
        5164490.5,
        5164490.5,
        5155537.5,
        5155537.5,
        5146599.5,
        5146599.5,
        5137674.5,
        5137674.5,
        5128765.5,
        5128765.5,
        5119871.0,
        5119871.0,
        5110991.5,
        5110991.5,
        5102127.0,
        5102127.0,
        5093276.0,
        5093276.0,
        5084440.0,
        5084440.0,
        5075618.0,
        5075618.0,
        5066810.5,
        5066810.5,
        5058019.0,
        5058019.0,
        5049240.0,
        5049240.0,
        5040476.5,
        5040476.5,
        5031728.0,
        5031728.0,
        5022991.5,
        5022991.5,
        5014272.0,
        5014272.0,
        5005565.5,
        5005565.5,
        4996873.5,
        4996873.5,
        4988196.5,
        4988196.5,
        4979533.0,
        4979533.0,
        4970885.0,
        4970885.0,
        4962250.0,
        4962250.0,
        4953629.5,
        4953629.5,
        4945023.0,
        4945023.0,
        4936430.5,
        4936430.5,
        4934714.0,
        4934714.0,
        4926139.0,
        4926139.0,
        4917578.5,
        4917578.5,
        4909032.0,
        4909032.0,
        4900499.0,
        4900499.0,
        4891980.0,
        4891980.0,
        4883476.5,
        4883476.5,
        4874985.5,
        4874985.5,
        4866509.0,
        4866509.0,
        4858046.5,
        4858046.5,
        4849598.0,
        4849598.0,
        4841164.0,
        4841164.0,
        4832743.0,
        4832743.0,
        4824336.0,
        4824336.0,
        4815944.5,
        4815944.5,
        4807565.0,
        4807565.0,
        4799199.5,
        4799199.5,
        4790848.5,
        4790848.5,
        4782511.5,
        4782511.5,
        4774187.0,
        4774187.0,
        4765878.0,
        4765878.0,
        4757582.0,
        4757582.0,
        4749300.0,
        4749300.0,
        4741031.0,
        4741031.0,
        4732775.5,
        4732775.5,
        4724535.0,
        4724535.0,
        4716307.5,
        4716307.5,
        4708093.5,
        4708093.5,
        4699893.0,
        4699893.0,
        4691706.0,
        4691706.0,
        4683533.5,
        4683533.5,
        4675373.5,
        4675373.5,
        4673742.5,
        4673742.5,
        4665600.5,
        4665600.5,
        4657470.0,
        4657470.0,
        4649353.5,
        4649353.5,
        4641251.5,
        4641251.5,
        4633161.5,
        4633161.5,
        4625085.5,
        4625085.5,
        4617023.0,
        4617023.0,
        4608973.5,
        4608973.5,
        4600938.5,
        4600938.5,
        4592915.5,
        4592915.5,
        4584906.5,
        4584906.5,
        4576910.5,
        4576910.5,
        4568928.0,
        4568928.0,
        4560958.0,
        4560958.0,
        4553002.0,
        4553002.0,
        4545060.0,
        4545060.0,
        4537130.0,
        4537130.0,
        4529214.5,
        4529214.5,
        4521310.5,
        4521310.5,
        4513420.5,
        4513420.5,
        4505543.5,
        4505543.5,
        4497679.5,
        4497679.5,
        4489828.5,
        4489828.5,
        4481992.0,
        4481992.0,
        4474166.5,
        4474166.5,
        4466355.5,
        4466355.5,
        4458556.5,
        4458556.5,
        4450771.5,
        4450771.5,
        4442998.5,
        4442998.5,
        4435239.0,
        4435239.0,
        4427492.5,
        4427492.5,
        4425944.0,
        4425944.0,
        4418213.0,
        4418213.0,
        4410495.0,
        4410495.0,
        4402789.0,
        4402789.0,
        4395096.5,
        4395096.5,
        4387416.5,
        4387416.5,
        4379750.0,
        4379750.0,
        4372095.0,
        4372095.0,
        4364454.5,
        4364454.5,
        4356826.5,
        4356826.5,
        4349210.5,
        4349210.5,
        4341606.5,
        4341606.5,
        4334016.0,
        4334016.0,
        4326438.5,
        4326438.5,
        4318873.0,
        4318873.0,
        4311320.5,
        4311320.5,
        4303781.0,
        4303781.0,
        4296253.5,
        4296253.5,
        4288739.0,
        4288739.0,
        4281237.5,
        4281237.5,
        4273747.5,
        4273747.5,
        4266270.5,
        4266270.5,
        4258805.5,
        4258805.5,
        4251354.5,
        4251354.5,
        4243914.0,
        4243914.0,
        4236487.0,
        4236487.0,
        4229072.5,
        4229072.5,
        4221670.0,
        4221670.0,
        4214280.5,
        4214280.5,
        4206902.5,
        4206902.5,
        4199537.5,
        4199537.5,
        4192185.0,
        4192185.0,
        4190715.5,
        4190715.5,
        4183377.0,
        4183377.0,
        4176051.5,
        4176051.5,
        4168738.5,
        4168738.5,
        4161437.0,
        4161437.0,
        4154148.25,
        4154148.25,
        4146871.25,
        4146871.25,
        4139607.0,
        4139607.0,
        4132354.75,
        4132354.75,
        4125114.0,
        4125114.0,
        4117886.25,
        4117886.25,
        4110670.25,
        4110670.25,
        4103466.5,
        4103466.5,
        4096274.5,
        4096274.5,
        4089094.75,
        4089094.75,
        4081927.75,
        4081927.75,
        4074771.75,
        4074771.75,
        4067628.75,
        4067628.75,
        4060497.25,
        4060497.25,
        4053377.5,
        4053377.5,
        4046269.75,
        4046269.75,
        4039174.25,
        4039174.25,
        4032090.25,
        4032090.25,
        4025018.75,
        4025018.75,
        4017958.75,
        4017958.75,
        4010910.5,
        4010910.5,
        4003874.75,
        4003874.75,
        3996850.25,
        3996850.25,
        3989838.0,
        3989838.0,
        3982836.5,
        3982836.5,
        3975848.0,
        3975848.0,
        3968871.0,
        3968871.0,
        3967476.5,
        3967476.5,
        3960514.0,
        3960514.0,
        3953562.25,
        3953562.25,
        3946622.75,
        3946622.75,
        3939694.75,
        3939694.75,
        3932778.25,
        3932778.25,
        3925873.75,
        3925873.75,
        3918980.75,
        3918980.75,
        3912099.25,
        3912099.25,
        3905229.5,
        3905229.5,
        3898371.0,
        3898371.0,
        3891524.5,
        3891524.5,
        3884689.0,
        3884689.0,
        3877865.25,
        3877865.25,
        3871053.75,
        3871053.75,
        3864252.75,
        3864252.75,
        3857463.75,
        3857463.75,
        3850686.25,
        3850686.25,
        3843919.75,
        3843919.75,
        3837164.75,
        3837164.75,
        3830421.5,
        3830421.5,
        3823689.25,
        3823689.25,
        3816968.5,
        3816968.5,
        3810259.25,
        3810259.25,
        3803560.75,
        3803560.75,
        3796874.25,
        3796874.25,
        3790199.5,
        3790199.5,
        3783534.75,
        3783534.75,
        3776881.75,
        3776881.75,
        3770240.25,
        3770240.25,
        3763609.75,
        3763609.75,
        3756990.5,
        3756990.5,
        3755668.5,
        3755668.5,
        3749062.75,
        3749062.75,
        3742467.75,
        3742467.75,
        3735884.5,
        3735884.5,
        3729311.75,
        3729311.75,
        3722750.25,
        3722750.25,
        3716200.75,
        3716200.75,
        3709661.75,
        3709661.75,
        3703134.0,
        3703134.0,
        3696616.75,
        3696616.75,
        3690111.0,
        3690111.0,
        3683615.5,
        3683615.5,
        3677132.0,
        3677132.0,
        3670659.25,
        3670659.25,
        3664197.25,
        3664197.25,
        3657746.0,
        3657746.0,
        3651306.0,
        3651306.0,
        3644876.5,
        3644876.5,
        3638458.5,
        3638458.5,
        3632050.75,
        3632050.75,
        3625654.75,
        3625654.75,
        3619269.0,
        3619269.0,
        3612894.0,
        3612894.0,
        3606529.75,
        3606529.75,
        3600176.5,
        3600176.5,
        3593834.0,
        3593834.0,
        3587502.5,
        3587502.5,
        3581181.25,
        3581181.25,
        3574871.0,
        3574871.0,
        3568571.25,
        3568571.25,
        3562282.25,
        3562282.25,
        3556004.0,
        3556004.0,
        3554749.5,
        3554749.5,
        3548484.25,
        3548484.25,
        3542229.5,
        3542229.5,
        3535985.5,
        3535985.5,
        3529752.0,
        3529752.0,
        3523528.75,
        3523528.75,
        3517316.0,
        3517316.0,
        3511114.25,
        3511114.25,
        3504923.0,
        3504923.0,
        3498741.75,
        3498741.75,
        3492571.75,
        3492571.75,
        3486412.25,
        3486412.25,
        3480262.0,
        3480262.0,
        3474123.5,
        3474123.5,
        3467995.0,
        3467995.0,
        3461877.0,
        3461877.0,
        3455769.5,
        3455769.5,
        3449672.25,
        3449672.25,
        3443585.5,
        3443585.5,
        3437508.75,
        3437508.75,
        3431442.25,
        3431442.25,
        3425386.25,
        3425386.25,
        3419341.0,
        3419341.0,
        3413305.75,
        3413305.75,
        3407280.25,
        3407280.25,
        3401265.5,
        3401265.5,
        3395260.75,
        3395260.75,
        3389266.75,
        3389266.75,
        3383282.75,
        3383282.75,
        3377308.75,
        3377308.75,
        3371345.0,
        3371345.0,
        3365391.75,
        3365391.75,
        3364202.25,
        3364202.25,
        3358260.5,
        3358260.5,
        3352329.25,
        3352329.25,
        3346408.0,
        3346408.0,
        3340496.75,
        3340496.75,
        3334596.25,
        3334596.25,
        3328704.75,
        3328704.75,
        3322824.0,
        3322824.0,
        3316952.75,
        3316952.75,
        3311092.0,
        3311092.0,
        3305241.75,
        3305241.75,
        3299400.75,
        3299400.75,
        3293570.0,
        3293570.0,
        3287748.75,
        3287748.75,
        3281937.25,
        3281937.25,
        3276136.25,
        3276136.25,
        3270345.5,
        3270345.5,
        3264563.75,
        3264563.75,
        3258792.25,
        3258792.25,
        3253030.5,
        3253030.5,
        3247278.75,
        3247278.75,
        3241536.75,
        3241536.75,
        3235804.5,
        3235804.5,
        3230082.5,
        3230082.5,
        3224369.75,
        3224369.75,
        3218667.25,
        3218667.25,
        3212974.0,
        3212974.0,
        3207290.5,
        3207290.5,
        3201617.25,
        3201617.25,
        3195953.25,
        3195953.25,
        3190298.75,
        3190298.75,
        3184654.0,
        3184654.0,
        3183526.25,
        3183526.25,
        3177893.5,
        3177893.5,
        3172270.0,
        3172270.0,
        3166656.25,
        3166656.25,
        3161051.75,
        3161051.75,
        3155456.75,
        3155456.75,
        3149872.5,
        3149872.5,
        3144297.0,
        3144297.0,
        3138730.75,
        3138730.75,
        3133175.0,
        3133175.0,
        3127627.5,
        3127627.5,
        3122090.25,
        3122090.25,
        3116562.25,
        3116562.25,
        3111044.25,
        3111044.25,
        3105535.0,
        3105535.0,
        3100035.25,
        3100035.25,
        3094545.0,
        3094545.0,
        3089065.0,
        3089065.0,
        3083592.75,
        3083592.75,
        3078131.25,
        3078131.25,
        3072678.75,
        3072678.75,
        3067235.75,
        3067235.75,
        3061801.5,
        3061801.5,
        3056377.0,
        3056377.0,
        3050961.75,
        3050961.75,
        3045555.75,
        3045555.75,
        3040158.75,
        3040158.75,
        3034771.25,
        3034771.25,
        3029392.75,
        3029392.75,
        3024024.0,
        3024024.0,
        3018664.0,
        3018664.0,
        3013313.25,
        3013313.25,
        3012244.25,
        3012244.25,
        3006904.75,
        3006904.75,
        3001574.25,
        3001574.25,
        2996252.75,
        2996252.75,
        2990941.0,
        2990941.0,
        2985637.75,
        2985637.75,
        2980344.0,
        2980344.0,
        2975059.25,
        2975059.25,
        2969783.25,
        2969783.25,
        2964516.5,
        2964516.5,
        2959259.0,
        2959259.0,
        2954009.5,
        2954009.5,
        2948770.25,
        2948770.25,
        2943539.75,
        2943539.75,
        2938317.5,
        2938317.5,
        2933105.25,
        2933105.25,
        2927901.5,
        2927901.5,
        2922706.5,
        2922706.5,
        2917520.5,
        2917520.5,
        2912343.75,
        2912343.75,
        2907175.5,
        2907175.5,
        2902016.0,
        2902016.0,
        2896866.5,
        2896866.5,
        2891724.75,
        2891724.75,
        2886592.0,
        2886592.0,
        2881468.25,
        2881468.25,
        2876353.0,
        2876353.0,
        2871247.0,
        2871247.0,
        2866149.5,
        2866149.5,
        2861060.75,
        2861060.75,
        2855981.25,
        2855981.25,
        2850909.5,
        2850909.5,
        2849896.5,
        2849896.5,
        2844836.0,
        2844836.0,
        2839783.75,
        2839783.75,
        2834741.0,
        2834741.0,
        2829706.25,
        2829706.25,
        2824680.5,
        2824680.5,
        2819663.25,
        2819663.25,
        2814654.5,
        2814654.5,
        2809654.5,
        2809654.5,
        2804663.5,
        2804663.5,
        2799680.25,
        2799680.25,
        2794706.25,
        2794706.25,
        2789741.25,
        2789741.25,
        2784784.0,
        2784784.0,
        2779835.25,
        2779835.25,
        2774895.25,
        2774895.25,
        2769963.75,
        2769963.75,
        2765041.0,
        2765041.0,
        2760126.5,
        2760126.5,
        2755220.0,
        2755220.0,
        2750322.75,
        2750322.75,
        2745433.5,
        2745433.5,
        2740553.0,
        2740553.0,
        2735680.5,
        2735680.5,
        2730817.0,
        2730817.0,
        2725961.0,
        2725961.0,
        2721114.5,
        2721114.5,
        2716275.5,
        2716275.5,
        2711445.25,
        2711445.25,
        2706623.25,
        2706623.25,
        2701809.75,
        2701809.75,
        2697004.0,
        2697004.0,
        2696043.5,
        2696043.5,
        2691248.5,
        2691248.5,
        2686461.5,
        2686461.5,
        2681682.5,
        2681682.5,
        2676911.75,
        2676911.75,
        2672149.25,
        2672149.25,
        2667395.5,
        2667395.5,
        2662649.25,
        2662649.25,
        2657911.5,
        2657911.5,
        2653182.0,
        2653182.0,
        2648460.25,
        2648460.25,
        2643747.0,
        2643747.0,
        2639042.0,
        2639042.0,
        2634345.25,
        2634345.25,
        2629656.5,
        2629656.5,
        2624975.75,
        2624975.75,
        2620303.0,
        2620303.0,
        2615638.25,
        2615638.25,
        2610981.75,
        2610981.75,
        2606333.0,
        2606333.0,
        2601693.0,
        2601693.0,
        2597060.25,
        2597060.25,
        2592435.75,
        2592435.75,
        2587819.75,
        2587819.75,
        2583211.25,
        2583211.25,
        2578610.75,
        2578610.75,
        2574018.25,
        2574018.25,
        2569434.25,
        2569434.25,
        2564857.25,
        2564857.25,
        2560288.5,
        2560288.5,
        2555728.0,
        2555728.0,
        2551175.0,
        2551175.0,
        2550265.25,
        2550265.25,
        2545721.75,
        2545721.75,
        2541186.25,
        2541186.25,
        2536658.5,
        2536658.5,
        2532138.5,
        2532138.5,
        2527626.5,
        2527626.5,
        2523122.75,
        2523122.75,
        2518626.0,
        2518626.0,
        2514137.5,
        2514137.5,
        2509656.5,
        2509656.5,
        2505183.75,
        2505183.75,
        2500718.5,
        2500718.5,
        2496260.75,
        2496260.75,
        2491811.25,
        2491811.25,
        2487368.5,
        2487368.5,
        2482934.5,
        2482934.5,
        2478507.5,
        2478507.5,
        2474088.25,
        2474088.25,
        2469677.0,
        2469677.0,
        2465273.25,
        2465273.25,
        2460876.75,
        2460876.75,
        2456488.25,
        2456488.25,
        2452107.75,
        2452107.75,
        2447734.25,
        2447734.25,
        2443368.75,
        2443368.75,
        2439011.0,
        2439011.0,
        2434660.25,
        2434660.25,
        2430317.0,
        2430317.0,
        2425981.5,
        2425981.5,
        2421653.5,
        2421653.5,
        2417333.25,
        2417333.25,
        2413020.25,
        2413020.25,
        2412158.5,
        2412158.5,
        2407854.75,
        2407854.75,
        2403558.25,
        2403558.25,
        2399269.25,
        2399269.25,
        2394987.25,
        2394987.25,
        2390713.5,
        2390713.5,
        2386446.5,
        2386446.5,
        2382187.25,
        2382187.25,
        2377935.5,
        2377935.5,
        2373691.0,
        2373691.0,
        2369453.75,
        2369453.75,
        2365223.75,
        2365223.75,
        2361001.25,
        2361001.25,
        2356786.25,
        2356786.25,
        2352578.25,
        2352578.25,
        2348378.0,
        2348378.0,
        2344184.75,
        2344184.75,
        2339998.75,
        2339998.75,
        2335820.0,
        2335820.0,
        2331648.75,
        2331648.75,
        2327485.0,
        2327485.0,
        2323328.25,
        2323328.25,
        2319178.5,
        2319178.5,
        2315036.5,
        2315036.5,
        2310901.0,
        2310901.0,
        2306772.75,
        2306772.75,
        2302652.25,
        2302652.25,
        2298538.25,
        2298538.25,
        2294431.75,
        2294431.75,
        2290333.0,
        2290333.0,
        2286240.5,
        2286240.5,
        2282155.25,
        2282155.25,
        2281339.5,
        2281339.5,
        2277262.75,
        2277262.75,
        2273193.0,
        2273193.0,
        2269131.0,
        2269131.0,
        2265075.25,
        2265075.25,
        2261027.5,
        2261027.5,
        2256986.0,
        2256986.0,
        2252951.75,
        2252951.75,
        2248924.5,
        2248924.5,
        2244904.5,
        2244904.5,
        2240891.75,
        2240891.75,
        2236885.25,
        2236885.25,
        2232886.0,
        2232886.0,
        2228894.0,
        2228894.0,
        2224908.75,
        2224908.75,
        2220930.5,
        2220930.5,
        2216959.25,
        2216959.25,
        2212994.5,
        2212994.5,
        2209037.0,
        2209037.0,
        2205086.5,
        2205086.5,
        2201143.0,
        2201143.0,
        2197206.0,
        2197206.0,
        2193276.0,
        2193276.0,
        2189353.0,
        2189353.0,
        2185437.0,
        2185437.0,
        2181527.25,
        2181527.25,
        2177624.75,
        2177624.75,
        2173728.75,
        2173728.75,
        2169839.75,
        2169839.75,
        2165957.5,
        2165957.5,
        2162081.75,
        2162081.75,
        2158213.25,
        2158213.25,
        2157440.25,
        2157440.25,
        2153579.75,
        2153579.75,
        2149725.75,
        2149725.75,
        2145878.75,
        2145878.75,
        2142038.25,
        2142038.25,
        2138204.5,
        2138204.5,
        2134377.5,
        2134377.5,
        2130557.0,
        2130557.0,
        2126743.5,
        2126743.5,
        2122936.0,
        2122936.0,
        2119136.0,
        2119136.0,
        2115342.5,
        2115342.5,
        2111555.0,
        2111555.0,
        2107774.5,
        2107774.5,
        2104000.5,
        2104000.5,
        2100233.25,
        2100233.25,
        2096472.5,
        2096472.5,
        2092718.25,
        2092718.25,
        2088970.75,
        2088970.75,
        2085229.75,
        2085229.75,
        2081494.875,
        2081494.875,
        2077767.25,
        2077767.25,
        2074045.625,
        2074045.625,
        2070330.625,
        2070330.625,
        2066622.0,
        2066622.0,
        2062920.125,
        2062920.125,
        2059224.625,
        2059224.625,
        2055535.375,
        2055535.375,
        2051852.875,
        2051852.875,
        2048177.0,
        2048177.0,
        2044506.875,
        2044506.875,
        2040843.375,
        2040843.375,
        2040111.5,
        2040111.5,
        2036456.0,
        2036456.0,
        2032807.0,
        2032807.0,
        2029164.0,
        2029164.0,
        2025527.625,
        2025527.625,
        2021897.125,
        2021897.125,
        2018273.375,
        2018273.375,
        2014655.875,
        2014655.875,
        2011044.625,
        2011044.625,
        2007439.875,
        2007439.875,
        2003841.5,
        2003841.5,
        2000249.25,
        2000249.25,
        1996663.375,
        1996663.375,
        1993083.75,
        1993083.75,
        1989510.5,
        1989510.5,
        1985943.5,
        1985943.5,
        1982382.5,
        1982382.5,
        1978827.75,
        1978827.75,
        1975279.375,
        1975279.375,
        1971737.0,
        1971737.0,
        1968201.25,
        1968201.25,
        1964671.375,
        1964671.375,
        1961147.625,
        1961147.625,
        1957630.375,
        1957630.375,
        1954119.125,
        1954119.125,
        1950614.0,
        1950614.0,
        1947114.875,
        1947114.875,
        1943622.25,
        1943622.25,
        1940135.5,
        1940135.5,
        1936654.875,
        1936654.875,
        1933180.25,
        1933180.25,
        1929711.875,
        1929711.875,
        1929019.0,
        1929019.0,
        1925557.875,
        1925557.875,
        1922102.75,
        1922102.75,
        1918653.875,
        1918653.875,
        1915210.875,
        1915210.875,
        1911773.75,
        1911773.75,
        1908343.0,
        1908343.0,
        1904918.0,
        1904918.0,
        1901499.125,
        1901499.125,
        1898086.375,
        1898086.375,
        1894679.625,
        1894679.625,
        1891278.625,
        1891278.625,
        1887883.75,
        1887883.75,
        1884494.75,
        1884494.75,
        1881111.75,
        1881111.75,
        1877734.625,
        1877734.625,
        1874363.375,
        1874363.375,
        1870998.0,
        1870998.0,
        1867638.75,
        1867638.75,
        1864285.375,
        1864285.375,
        1860937.875,
        1860937.875,
        1857596.125,
        1857596.125,
        1854260.0,
        1854260.0,
        1850930.125,
        1850930.125,
        1847605.875,
        1847605.875,
        1844287.625,
        1844287.625,
        1840975.125,
        1840975.125,
        1837668.625,
        1837668.625,
        1834367.75,
        1834367.75,
        1831072.875,
        1831072.875,
        1827783.625,
        1827783.625,
        1824499.875,
        1824499.875,
        1823844.0,
        1823844.0,
        1820567.625,
        1820567.625,
        1817296.75,
        1817296.75,
        1814031.5,
        1814031.5,
        1810772.25,
        1810772.25,
        1807518.625,
        1807518.625,
        1804270.875,
        1804270.875,
        1801028.75,
        1801028.75,
        1797792.125,
        1797792.125,
        1794561.5,
        1794561.5,
        1791336.25,
        1791336.25,
        1788116.875,
        1788116.875,
        1784903.375,
        1784903.375,
        1781695.0,
        1781695.0,
        1778492.375,
        1778492.375,
        1775295.75,
        1775295.75,
        1772104.375,
        1772104.375,
        1768919.0,
        1768919.0,
        1765738.75,
        1765738.75,
        1762564.5,
        1762564.5,
        1759395.625,
        1759395.625,
        1756232.25,
        1756232.25,
        1753074.5,
        1753074.5,
        1749922.5,
        1749922.5,
        1746775.875,
        1746775.875,
        1743634.75,
        1743634.75,
        1740499.25,
        1740499.25,
        1737369.25,
        1737369.25,
        1734244.75,
        1734244.75,
        1731125.75,
        1731125.75,
        1728012.375,
        1728012.375,
        1724904.25,
        1724904.25,
        1724283.375,
        1724283.375,
        1721181.75,
        1721181.75,
        1718085.75,
        1718085.75,
        1714995.25,
        1714995.25,
        1711910.125,
        1711910.125,
        1708830.375,
        1708830.375,
        1705756.0,
        1705756.0,
        1702687.125,
        1702687.125,
        1699623.75,
        1699623.75,
        1696565.625,
        1696565.625,
        1693513.125,
        1693513.125,
        1690465.5,
        1690465.5,
        1687423.75,
        1687423.75,
        1684387.25,
        1684387.25,
        1681355.875,
        1681355.875,
        1678329.875,
        1678329.875,
        1675309.625,
        1675309.625,
        1672294.5,
        1672294.5,
        1669284.25,
        1669284.25,
        1666279.625,
        1666279.625,
        1663280.375,
        1663280.375,
        1660286.5,
        1660286.5,
        1657297.75,
        1657297.75,
        1654314.25,
        1654314.25,
        1651336.0,
        1651336.0,
        1648362.875,
        1648362.875,
        1645395.375,
        1645395.375,
        1642432.625,
        1642432.625,
        1639475.625,
        1639475.625,
        1636523.5,
        1636523.5,
        1633576.75,
        1633576.75,
        1630634.875,
        1630634.875,
        1630047.125,
        1630047.125,
        1627111.875,
        1627111.875,
        1624181.5,
        1624181.5,
        1621256.25,
        1621256.25,
        1618336.25,
        1618336.25,
        1615421.875,
        1615421.875,
        1612512.125,
        1612512.125,
        1609607.625,
        1609607.625,
        1606708.25,
        1606708.25,
        1603814.0,
        1603814.0,
        1600924.875,
        1600924.875,
        1598040.75,
        1598040.75,
        1595161.75,
        1595161.75,
        1592287.75,
        1592287.75,
        1589419.0,
        1589419.0,
        1586555.375,
        1586555.375,
        1583696.5,
        1583696.5,
        1580843.125,
        1580843.125,
        1577994.375,
        1577994.375,
        1575150.875,
        1575150.875,
        1572312.5,
        1572312.5,
        1569478.875,
        1569478.875,
        1566650.25,
        1566650.25,
        1563826.75,
        1563826.75,
        1561008.25,
        1561008.25,
        1558194.75,
        1558194.75,
        1555386.125,
        1555386.125,
        1552582.25,
        1552582.25,
        1549783.875,
        1549783.875,
        1546990.0,
        1546990.0,
        1544201.125,
        1544201.125,
        1541417.375,
        1541417.375,
        1540861.375,
        1540861.375,
        1538083.25,
        1538083.25,
        1535310.0,
        1535310.0,
        1532541.875,
        1532541.875,
        1529778.625,
        1529778.625,
        1527020.125,
        1527020.125,
        1524266.625,
        1524266.625,
        1521518.125,
        1521518.125,
        1518774.25,
        1518774.25,
        1516035.375,
        1516035.375,
        1513301.125,
        1513301.125,
        1510572.0,
        1510572.0,
        1507847.75,
        1507847.75,
        1505128.125,
        1505128.125,
        1502413.125,
        1502413.125,
        1499703.125,
        1499703.125,
        1496997.875,
        1496997.875,
        1494297.625,
        1494297.625,
        1491602.125,
        1491602.125,
        1488911.0,
        1488911.0,
        1486225.0,
        1486225.0,
        1483543.75,
        1483543.75,
        1480867.0,
        1480867.0,
        1478195.0,
        1478195.0,
        1475527.875,
        1475527.875,
        1472865.5,
        1472865.5,
        1470207.875,
        1470207.875,
        1467554.75,
        1467554.75,
        1464906.25,
        1464906.25,
        1462262.75,
        1462262.75,
        1459623.875,
        1459623.875,
        1456989.375,
        1456989.375,
        1456463.25,
        1456463.25,
        1453834.5,
        1453834.5,
        1451210.25,
        1451210.25,
        1448590.875,
        1448590.875,
        1445976.25,
        1445976.25,
        1443366.125,
        1443366.125,
        1440760.625,
        1440760.625,
        1438159.75,
        1438159.75,
        1435563.5,
        1435563.5,
        1432971.75,
        1432971.75,
        1430384.75,
        1430384.75,
        1427802.125,
        1427802.125,
        1425224.125,
        1425224.125,
        1422650.875,
        1422650.875,
        1420081.875,
        1420081.875,
        1417517.625,
        1417517.625,
        1414958.0,
        1414958.0,
        1412402.875,
        1412402.875,
        1409852.125,
        1409852.125,
        1407305.875,
        1407305.875,
        1404764.375,
        1404764.375,
        1402227.375,
        1402227.375,
        1399694.5,
        1399694.5,
        1397166.5,
        1397166.5,
        1394642.875,
        1394642.875,
        1392123.625,
        1392123.625,
        1389608.875,
        1389608.875,
        1387098.625,
        1387098.625,
        1384592.875,
        1384592.875,
        1382091.25,
        1382091.25,
        1379594.5,
        1379594.5,
        1377102.125,
        1377102.125,
        1376603.875,
        1376603.875,
        1374117.0,
        1374117.0,
        1371634.0,
        1371634.0,
        1369155.75,
        1369155.75,
        1366681.75,
        1366681.75,
        1364212.0,
        1364212.0,
        1361746.75,
        1361746.75,
        1359286.0,
        1359286.0,
        1356829.375,
        1356829.375,
        1354377.375,
        1354377.375,
        1351929.75,
        1351929.75,
        1349486.125,
        1349486.125,
        1347046.875,
        1347046.875,
        1344612.25,
        1344612.25,
        1342181.75,
        1342181.75,
        1339755.625,
        1339755.625,
        1337333.875,
        1337333.875,
        1334916.25,
        1334916.25,
        1332503.0,
        1332503.0,
        1330094.0,
        1330094.0,
        1327689.375,
        1327689.375,
        1325289.125,
        1325289.125,
        1322892.75,
        1322892.75,
        1320500.875,
        1320500.875,
        1318113.125,
        1318113.125,
        1315729.75,
        1315729.75,
        1313350.625,
        1313350.625,
        1310975.875,
        1310975.875,
        1308604.875,
        1308604.875,
        1306238.5,
        1306238.5,
        1303876.0,
        1303876.0,
        1301518.125,
        1301518.125,
        1301047.0,
        1301047.0,
        1298693.75,
        1298693.75,
        1296345.0,
        1296345.0,
        1294000.125,
        1294000.125,
        1291659.625,
        1291659.625,
        1289323.125,
        1289323.125,
        1286990.875,
        1286990.875,
        1284662.75,
        1284662.75,
        1282339.0,
        1282339.0,
        1280018.875,
        1280018.875,
        1277703.25,
        1277703.25,
        1275391.75,
        1275391.75,
        1273084.125,
        1273084.125,
        1270780.375,
        1270780.375,
        1268481.125,
        1268481.125,
        1266186.125,
        1266186.125,
        1263894.75,
        1263894.75,
        1261607.875,
        1261607.875,
        1259324.75,
        1259324.75,
        1257045.875,
        1257045.875,
        1254771.0,
        1254771.0,
        1252500.0,
        1252500.0,
        1250233.25,
        1250233.25,
        1247970.25,
        1247970.25,
        1245711.625,
        1245711.625,
        1243456.875,
        1243456.875,
        1241206.0,
        1241206.0,
        1238959.5,
        1238959.5,
        1236716.625,
        1236716.625,
        1234478.125,
        1234478.125,
        1232243.125,
        1232243.125,
        1230012.375,
        1230012.375,
        1229566.625,
        1229566.625,
        1227340.625,
        1227340.625,
        1225118.75,
        1225118.75,
        1222900.5,
        1222900.5,
        1220686.375,
        1220686.375,
        1218476.0,
        1218476.0,
        1216269.875,
        1216269.875,
        1214067.5,
        1214067.5,
        1211868.875,
        1211868.875,
        1209674.5,
        1209674.5,
        1207483.75,
        1207483.75,
        1205297.0,
        1205297.0,
        1203114.375,
        1203114.375,
        1200935.375,
        1200935.375,
        1198760.25,
        1198760.25,
        1196588.875,
        1196588.875,
        1194421.75,
        1194421.75,
        1192258.25,
        1192258.25,
        1190098.625,
        1190098.625,
        1187942.75,
        1187942.75,
        1185790.875,
        1185790.875,
        1183642.875,
        1183642.875,
        1181498.375,
        1181498.375,
        1179357.875,
        1179357.875,
        1177221.375,
        1177221.375,
        1175088.625,
        1175088.625,
        1172959.5,
        1172959.5,
        1170834.25,
        1170834.25,
        1168712.875,
        1168712.875,
        1166595.125,
        1166595.125,
        1164481.125,
        1164481.125,
        1162371.125,
        1162371.125,
        1161949.5,
        1161949.5,
        1159843.875,
        1159843.875,
        1157742.0,
        1157742.0,
        1155643.625,
        1155643.625,
        1153549.5,
        1153549.5,
        1151458.75,
        1151458.75,
        1149371.625,
        1149371.625,
        1147288.625,
        1147288.625,
        1145209.125,
        1145209.125,
        1143133.125,
        1143133.125,
        1141061.125,
        1141061.125,
        1138992.625,
        1138992.625,
        1136928.0,
        1136928.0,
        1134867.0,
        1134867.0,
        1132809.75,
        1132809.75,
        1130756.0,
        1130756.0,
        1128705.875,
        1128705.875,
        1126659.75,
        1126659.75,
        1124616.75,
        1124616.75,
        1122577.625,
        1122577.625,
        1120542.5,
        1120542.5,
        1118510.5,
        1118510.5,
        1116482.25,
        1116482.25,
        1114457.75,
        1114457.75,
        1112436.625,
        1112436.625,
        1110419.375,
        1110419.375,
        1108405.625,
        1108405.625,
        1106395.375,
        1106395.375,
        1104388.875,
        1104388.875,
        1102385.875,
        1102385.875,
        1100386.5,
        1100386.5,
        1098390.375,
        1098390.375,
        1097991.75,
        1097991.75,
        1096000.125,
        1096000.125,
        1094012.25,
        1094012.25,
        1092027.625,
        1092027.625,
        1090046.75,
        1090046.75,
        1088069.25,
        1088069.25,
        1086095.375,
        1086095.375,
        1084125.0,
        1084125.0,
        1082158.25,
        1082158.25,
        1080195.0,
        1080195.0,
        1078235.0,
        1078235.0,
        1076278.625,
        1076278.625,
        1074325.875,
        1074325.875,
        1072376.625,
        1072376.625,
        1070430.75,
        1070430.75,
        1068488.375,
        1068488.375,
        1066549.375,
        1066549.375,
        1064613.875,
        1064613.875,
        1062681.875,
        1062681.875,
        1060753.375,
        1060753.375,
        1058828.375,
        1058828.375,
        1056906.625,
        1056906.625,
        1054988.25,
        1054988.25,
        1053073.5,
        1053073.5,
        1051162.125,
        1051162.125,
        1049254.25,
        1049254.25,
        1047349.75,
        1047349.75,
        1045448.5,
        1045448.5,
        1043550.75,
        1043550.75,
        1041656.375,
        1041656.375,
        1039765.4375,
        1039765.4375,
        1037877.8125,
        1037877.8125,
        1037500.8125,
        1037500.8125,
        1035617.125,
        1035617.125,
        1033736.9375,
        1033736.9375,
        1031860.125,
        1031860.125,
        1029986.5625,
        1029986.5625,
        1028116.5,
        1028116.5,
        1026249.6875,
        1026249.6875,
        1024386.25,
        1024386.25,
        1022526.0625,
        1022526.0625,
        1020669.3125,
        1020669.3125,
        1018815.8125,
        1018815.8125,
        1016965.6875,
        1016965.6875,
        1015118.6875,
        1015118.6875,
        1013275.1875,
        1013275.1875,
        1011435.0,
        1011435.0,
        1009597.9375,
        1009597.9375,
        1007764.375,
        1007764.375,
        1005933.8125,
        1005933.8125,
        1004106.75,
        1004106.75,
        1002282.8125,
        1002282.8125,
        1000462.3125,
        1000462.3125,
        998644.875,
        998644.875,
        996830.75,
        996830.75,
        995019.9375,
        995019.9375,
        993212.4375,
        993212.4375,
        991407.9375,
        991407.9375,
        989606.8125,
        989606.8125,
        987808.9375,
        987808.9375,
        986014.1875,
        986014.1875,
        984222.6875,
        984222.6875,
        982434.4375,
        982434.4375,
        980649.3125,
        980649.3125,
        980292.6875,
        980292.6875,
        978511.4375,
        978511.4375,
        976733.375,
        976733.375,
        974958.5,
        974958.5,
        973186.75,
        973186.75,
        971418.1875,
        971418.1875,
        969652.875,
        969652.875,
        967890.5625,
        967890.5625,
        966131.5625,
        966131.5625,
        964375.5625,
        964375.5625,
        962622.75,
        962622.75,
        960873.25,
        960873.25,
        959126.625,
        959126.625,
        957383.375,
        957383.375,
        955643.125,
        955643.125,
        953905.9375,
        953905.9375,
        952171.875,
        952171.875,
        950440.9375,
        950440.9375,
        948713.25,
        948713.25,
        946988.5,
        946988.5,
        945266.875,
        945266.875,
        943548.1875,
        943548.1875,
        941832.625,
        941832.625,
        940120.3125,
        940120.3125,
        938411.0,
        938411.0,
        936704.6875,
        936704.6875,
        935001.3125,
        935001.3125,
        933301.25,
        933301.25,
        931604.125,
        931604.125,
        929910.0625,
        929910.0625,
        928218.9375,
        928218.9375,
        926530.9375,
        926530.9375,
        926193.75,
        926193.75,
        924509.375,
        924509.375,
        922827.875,
        922827.875,
        921149.625,
        921149.625,
        919474.25,
        919474.25,
        917801.875,
        917801.875,
        916132.625,
        916132.625,
        914466.25,
        914466.25,
        912802.875,
        912802.875,
        911142.375,
        911142.375,
        909485.0,
        909485.0,
        907830.625,
        907830.625,
        906179.0625,
        906179.0625,
        904530.625,
        904530.625,
        902885.0625,
        902885.0625,
        901242.5,
        901242.5,
        899602.6875,
        899602.6875,
        897966.125,
        897966.125,
        896332.25,
        896332.25,
        894701.375,
        894701.375,
        893073.375,
        893073.375,
        891448.4375,
        891448.4375,
        889826.3125,
        889826.3125,
        888207.0625,
        888207.0625,
        886590.75,
        886590.75,
        884977.375,
        884977.375,
        883366.875,
        883366.875,
        881759.1875,
        881759.1875,
        880154.5625,
        880154.5625,
        878552.6875,
        878552.6875,
        876953.6875,
        876953.6875,
        875357.75,
        875357.75,
        875038.625,
        875038.625,
        873446.0625,
        873446.0625,
        871856.25,
        871856.25,
        870269.375,
        870269.375,
        868685.25,
        868685.25,
        867103.9375,
        867103.9375,
        865525.625,
        865525.625,
        863949.9375,
        863949.9375,
        862377.1875,
        862377.1875,
        860807.125,
        860807.125,
        859240.0625,
        859240.0625,
        857675.6875,
        857675.6875,
        856114.25,
        856114.25,
        854555.375,
        854555.375,
        852999.5625,
        852999.5625,
        851446.4375,
        851446.4375,
        849896.1875,
        849896.1875,
        848348.5,
        848348.5,
        846803.75,
        846803.75,
        845261.875,
        845261.875,
        843722.6875,
        843722.6875,
        842186.125,
        842186.125,
        840652.4375,
        840652.4375,
        839121.5,
        839121.5,
        837593.3125,
        837593.3125,
        836067.8125,
        836067.8125,
        834545.0625,
        834545.0625,
        833025.0625,
        833025.0625,
        831507.75,
        831507.75,
        829993.375,
        829993.375,
        828481.5,
        828481.5,
        826972.375,
        826972.375,
        826670.875,
        826670.875,
        825165.125,
        825165.125,
        823661.9375,
        823661.9375,
        822161.5,
        822161.5,
        820663.75,
        820663.75,
        819168.6875,
        819168.6875,
        817676.375,
        817676.375,
        816186.6875,
        816186.6875,
        814699.6875,
        814699.6875,
        813215.4375,
        813215.4375,
        811733.6875,
        811733.6875,
        810254.625,
        810254.625,
        808778.3125,
        808778.3125,
        807304.625,
        807304.625,
        805833.625,
        805833.625,
        804365.1875,
        804365.1875,
        802899.375,
        802899.375,
        801436.25,
        801436.25,
        799975.875,
        799975.875,
        798518.0625,
        798518.0625,
        797062.6875,
        797062.6875,
        795610.125,
        795610.125,
        794160.125,
        794160.125,
        792712.625,
        792712.625,
        791267.75,
        791267.75,
        789825.5625,
        789825.5625,
        788386.0,
        788386.0,
        786949.0,
        786949.0,
        785514.5625,
        785514.5625,
        784082.625,
        784082.625,
        782653.375,
        782653.375,
        781226.625,
        781226.625,
        780941.625,
        780941.625,
        779518.0,
        779518.0,
        778096.875,
        778096.875,
        776678.375,
        776678.375,
        775262.375,
        775262.375,
        773848.875,
        773848.875,
        772438.0625,
        772438.0625,
        771029.625,
        771029.625,
        769623.9375,
        769623.9375,
        768220.5,
        768220.5,
        766819.8125,
        766819.8125,
        765421.625,
        765421.625,
        764025.8125,
        764025.8125,
        762632.625,
        762632.625,
        761241.9375,
        761241.9375,
        759853.6875,
        759853.6875,
        758468.0,
        758468.0,
        757084.75,
        757084.75,
        755704.0625,
        755704.0625,
        754325.75,
        754325.75,
        752950.0,
        752950.0,
        751576.8125,
        751576.8125,
        750206.0,
        750206.0,
        748837.625,
        748837.625,
        747471.75,
        747471.75,
        746108.25,
        746108.25,
        744747.375,
        744747.375,
        743388.875,
        743388.875,
        742032.75,
        742032.75,
        740679.0625,
        740679.0625,
        739327.9375,
        739327.9375,
        737979.1875,
        737979.1875,
        737709.6875,
        737709.6875,
        736363.875,
        736363.875,
        735020.375,
        735020.375,
        733679.3125,
        733679.3125,
        732340.8125,
        732340.8125,
        731004.625,
        731004.625,
        729670.9375,
        729670.9375,
        728339.5,
        728339.5,
        727010.5625,
        727010.5625,
        725683.9375,
        725683.9375,
        724359.6875,
        724359.6875,
        723038.0,
        723038.0,
        721718.4375,
        721718.4375,
        720401.4375,
        720401.4375,
        719086.8125,
        719086.8125,
        717774.4375,
        717774.4375,
        716464.5625,
        716464.5625,
        715156.9375,
        715156.9375,
        713851.75,
        713851.75,
        712548.75,
        712548.75,
        711248.375,
        711248.375,
        709950.125,
        709950.125,
        708654.25,
        708654.25,
        707360.6875,
        707360.6875,
        706069.5625,
        706069.5625,
        704780.6875,
        704780.6875,
        703494.125,
        703494.125,
        702209.875,
        702209.875,
        700928.125,
        700928.125,
        699648.5,
        699648.5,
        698371.1875,
        698371.1875,
        697096.3125,
        697096.3125,
        696841.4375,
        696841.4375,
        695569.25,
        695569.25,
        694299.3125,
        694299.3125,
        693031.75,
        693031.75,
        691766.3125,
        691766.3125,
        690503.1875,
        690503.1875,
        689242.4375,
        689242.4375,
        687984.0,
        687984.0,
        686727.8125,
        686727.8125,
        685473.625,
        685473.625,
        684222.0,
        684222.0,
        682972.4375,
        682972.4375,
        681725.25,
        681725.25,
        680480.3125,
        680480.3125,
        679237.5625,
        679237.5625,
        677997.125,
        677997.125,
        676758.875,
        676758.875,
        675522.875,
        675522.875,
        674289.0,
        674289.0,
        673057.5,
        673057.5,
        671828.125,
        671828.125,
        670601.0,
        670601.0,
        669376.1875,
        669376.1875,
        668153.4375,
        668153.4375,
        666932.9375,
        666932.9375,
        665714.625,
        665714.625,
        664498.625,
        664498.625,
        663284.5625,
        663284.5625,
        662072.9375,
        662072.9375,
        660863.4375,
        660863.4375,
        659656.0625,
        659656.0625,
        658450.875,
        658450.875,
        658210.1875,
        658210.1875,
        657007.5,
        657007.5,
        655807.25,
        655807.25,
        654609.0,
        654609.0,
        653412.875,
        653412.875,
        652219.0625,
        652219.0625,
        651027.3125,
        651027.3125,
        649837.75,
        649837.75,
        648650.25,
        648650.25,
        647465.0625,
        647465.0625,
        646281.8125,
        646281.8125,
        645100.8125,
        645100.8125,
        643921.875,
        643921.875,
        642745.125,
        642745.125,
        641570.5,
        641570.5,
        640398.0,
        640398.0,
        639227.625,
        639227.625,
        638059.3125,
        638059.3125,
        636893.125,
        636893.125,
        635728.9375,
        635728.9375,
        634567.0,
        634567.0,
        633407.125,
        633407.125,
        632249.3125,
        632249.3125,
        631093.6875,
        631093.6875,
        629940.0625,
        629940.0625,
        628788.625,
        628788.625,
        627639.1875,
        627639.1875,
        626491.8125,
        626491.8125,
        625346.5625,
        625346.5625,
        624203.3125,
        624203.3125,
        623062.125,
        623062.125,
        621923.0,
        621923.0,
        621695.4375,
        621695.4375,
        620558.8125,
        620558.8125,
        619424.1875,
        619424.1875,
        618291.6875,
        618291.6875,
        617161.1875,
        617161.1875,
        616032.75,
        616032.75,
        614906.375,
        614906.375,
        613782.0625,
        613782.0625,
        612659.6875,
        612659.6875,
        611539.375,
        611539.375,
        610421.1875,
        610421.1875,
        609304.8125,
        609304.8125,
        608190.5625,
        608190.5625,
        607078.3125,
        607078.3125,
        605968.125,
        605968.125,
        604860.0,
        604860.0,
        603753.75,
        603753.75,
        602649.5,
        602649.5,
        601547.3125,
        601547.3125,
        600447.0625,
        600447.0625,
        599348.75,
        599348.75,
        598252.5625,
        598252.5625,
        597158.375,
        597158.375,
        596066.0,
        596066.0,
        594975.625,
        594975.625,
        593887.4375,
        593887.4375,
        592801.0,
        592801.0,
        591716.5625,
        591716.5625,
        590634.125,
        590634.125,
        589553.625,
        589553.625,
        588475.125,
        588475.125,
        587398.5,
        587398.5,
        587183.3125,
        587183.3125,
        586109.1875,
        586109.1875,
        585036.75,
        585036.75,
        583966.4375,
        583966.4375,
        582898.0,
        582898.0,
        581831.5,
        581831.5,
        580766.9375,
        580766.9375,
        579704.25,
        579704.25,
        578643.5625,
        578643.5625,
        577584.75,
        577584.75,
        576527.875,
        576527.875,
        575472.8125,
        575472.8125,
        574419.75,
        574419.75,
        573368.5625,
        573368.5625,
        572319.3125,
        572319.3125,
        571271.9375,
        571271.9375,
        570226.4375,
        570226.4375,
        569182.8125,
        569182.8125,
        568141.125,
        568141.125,
        567101.3125,
        567101.3125,
        566063.375,
        566063.375,
        565027.3125,
        565027.3125,
        563993.125,
        563993.125,
        562960.8125,
        562960.8125,
        561930.375,
        561930.375,
        560901.8125,
        560901.8125,
        559875.125,
        559875.125,
        558850.25,
        558850.25,
        557827.25,
        557827.25,
        556806.125,
        556806.125,
        555786.75,
        555786.75,
        554769.375,
        554769.375,
        554566.0625,
        554566.0625,
        553550.8125,
        553550.8125,
        552537.4375,
        552537.4375,
        551525.875,
        551525.875,
        550516.0625,
        550516.0625,
        549508.125,
        549508.125,
        548502.125,
        548502.125,
        547497.75,
        547497.75,
        546495.3125,
        546495.3125,
        545494.6875,
        545494.6875,
        544495.9375,
        544495.9375,
        543498.8125,
        543498.8125,
        542503.625,
        542503.625,
        541510.1875,
        541510.1875,
        540518.5625,
        540518.5625,
        539528.75,
        539528.75,
        538540.6875,
        538540.6875,
        537554.5,
        537554.5,
        536570.0,
        536570.0,
        535587.375,
        535587.375,
        534606.5,
        534606.5,
        533627.375,
        533627.375,
        532650.0,
        532650.0,
        531674.4375,
        531674.4375,
        530700.625,
        530700.625,
        529728.625,
        529728.625,
        528758.3125,
        528758.3125,
        527789.8125,
        527789.8125,
        526823.0625,
        526823.0625,
        525858.0,
        525858.0,
        524894.75,
        524894.75,
        523933.21875,
        523933.21875,
        523741.09375,
        523741.09375,
        522781.6875,
        522781.6875,
        521823.96875,
        521823.96875,
        520868.03125,
        520868.03125,
        519913.78125,
        519913.78125,
        518961.28125,
        518961.28125,
        518010.5,
        518010.5,
        517061.5,
        517061.5,
        516114.15625,
        516114.15625,
        515168.46875,
        515168.46875,
        514224.65625,
        514224.65625,
        513282.4375,
        513282.4375,
        512341.90625,
        512341.90625,
        511403.15625,
        511403.15625,
        510466.09375,
        510466.09375,
        509530.65625,
        509530.65625,
        508597.03125,
        508597.03125,
        507665.0,
        507665.0,
        506734.65625,
        506734.65625,
        505806.09375,
        505806.09375,
        504879.125,
        504879.125,
        503953.84375,
        503953.84375,
        503030.28125,
        503030.28125,
        502108.375,
        502108.375,
        501188.1875,
        501188.1875,
        500269.59375,
        500269.59375,
        499352.6875,
        499352.6875,
        498437.46875,
        498437.46875,
        497523.90625,
        497523.90625,
        496612.03125,
        496612.03125,
        495701.75,
        495701.75,
        494793.125,
        494793.125,
        494611.59375,
        494611.59375,
        493704.96875,
        493704.96875,
        492799.90625,
        492799.90625,
        491896.59375,
        491896.59375,
        490994.875,
        490994.875,
        490094.84375,
        490094.84375,
        489196.375,
        489196.375,
        488299.59375,
        488299.59375,
        487404.375,
        487404.375,
        486510.8125,
        486510.8125,
        485618.84375,
        485618.84375,
        484728.53125,
        484728.53125,
        483839.8125,
        483839.8125,
        482952.75,
        482952.75,
        482067.25,
        482067.25,
        481183.34375,
        481183.34375,
        480301.03125,
        480301.03125,
        479420.375,
        479420.375,
        478541.25,
        478541.25,
        477663.84375,
        477663.84375,
        476787.90625,
        476787.90625,
        475913.5625,
        475913.5625,
        475040.90625,
        475040.90625,
        474169.71875,
        474169.71875,
        473300.15625,
        473300.15625,
        472432.1875,
        472432.1875,
        471565.78125,
        471565.78125,
        470700.96875,
        470700.96875,
        469837.6875,
        469837.6875,
        468975.9375,
        468975.9375,
        468115.8125,
        468115.8125,
        467257.3125,
        467257.3125,
        467085.75,
        467085.75,
        466229.09375,
        466229.09375,
        465373.9375,
        465373.9375,
        464520.28125,
        464520.28125,
        463668.25,
        463668.25,
        462817.75,
        462817.75,
        461968.84375,
        461968.84375,
        461121.40625,
        461121.40625,
        460275.5625,
        460275.5625,
        459431.15625,
        459431.15625,
        458588.34375,
        458588.34375,
        457747.0625,
        457747.0625,
        456907.3125,
        456907.3125,
        456069.09375,
        456069.09375,
        455232.40625,
        455232.40625,
        454397.28125,
        454397.28125,
        453563.5625,
        453563.5625,
        452731.34375,
        452731.34375,
        451900.8125,
        451900.8125,
        451071.625,
        451071.625,
        450244.03125,
        450244.03125,
        449417.875,
        449417.875,
        448593.21875,
        448593.21875,
        447770.125,
        447770.125,
        446948.46875,
        446948.46875,
        446128.3125,
        446128.3125,
        445309.6875,
        445309.6875,
        444492.46875,
        444492.46875,
        443676.8125,
        443676.8125,
        442862.625,
        442862.625,
        442049.90625,
        442049.90625,
        441238.6875,
        441238.6875,
        441076.5625,
        441076.5625,
        440267.09375,
        440267.09375,
        439459.0625,
        439459.0625,
        438652.5625,
        438652.5625,
        437847.5,
        437847.5,
        437043.90625,
        437043.90625,
        436241.71875,
        436241.71875,
        435441.03125,
        435441.03125,
        434641.75,
        434641.75,
        433844.03125,
        433844.03125,
        433047.65625,
        433047.65625,
        432252.75,
        432252.75,
        431459.34375,
        431459.34375,
        430667.28125,
        430667.28125,
        429876.6875,
        429876.6875,
        429087.625,
        429087.625,
        428299.9375,
        428299.9375,
        427513.625,
        427513.625,
        426728.84375,
        426728.84375,
        425945.4375,
        425945.4375,
        425163.40625,
        425163.40625,
        424382.875,
        424382.875,
        423603.71875,
        423603.71875,
        422825.96875,
        422825.96875,
        422049.625,
        422049.625,
        421274.71875,
        421274.71875,
        420501.28125,
        420501.28125,
        419729.1875,
        419729.1875,
        418958.46875,
        418958.46875,
        418189.1875,
        418189.1875,
        417421.375,
        417421.375,
        416654.8125,
        416654.8125,
        416501.75,
        416501.75,
        415736.90625,
        415736.90625,
        414973.46875,
        414973.46875,
        414211.40625,
        414211.40625,
        413450.78125,
        413450.78125,
        412691.53125,
        412691.53125,
        411933.59375,
        411933.59375,
        411177.03125,
        411177.03125,
        410421.9375,
        410421.9375,
        409668.1875,
        409668.1875,
        408915.8125,
        408915.8125,
        408164.75,
        408164.75,
        407415.09375,
        407415.09375,
        406666.8125,
        406666.8125,
        405919.875,
        405919.875,
        405174.28125,
        405174.28125,
        404430.0625,
        404430.0625,
        403687.15625,
        403687.15625,
        402945.625,
        402945.625,
        402205.53125,
        402205.53125,
        401466.65625,
        401466.65625,
        400729.21875,
        400729.21875,
        399993.09375,
        399993.09375,
        399258.28125,
        399258.28125,
        398524.8125,
        398524.8125,
        397792.65625,
        397792.65625,
        397061.875,
        397061.875,
        396332.40625,
        396332.40625,
        395604.21875,
        395604.21875,
        394877.46875,
        394877.46875,
        394151.96875,
        394151.96875,
        393427.78125,
        393427.78125,
        393283.125,
        393283.125,
        392560.53125,
        392560.53125,
        391839.25,
        391839.25,
        391119.28125,
        391119.28125,
        390400.65625,
        390400.65625,
        389683.25,
        389683.25,
        388967.28125,
        388967.28125,
        388252.5,
        388252.5,
        387539.09375,
        387539.09375,
        386826.96875,
        386826.96875,
        386116.09375,
        386116.09375,
        385406.5625,
        385406.5625,
        384698.34375,
        384698.34375,
        383991.3125,
        383991.3125,
        383285.625,
        383285.625,
        382581.28125,
        382581.28125,
        381878.125,
        381878.125,
        381176.3125,
        381176.3125,
        380475.75,
        380475.75,
        379776.46875,
        379776.46875,
        379078.46875,
        379078.46875,
        378381.71875,
        378381.71875,
        377686.28125,
        377686.28125,
        376992.03125,
        376992.03125,
        376299.09375,
        376299.09375,
        375607.4375,
        375607.4375,
        374917.03125,
        374917.03125,
        374227.84375,
        374227.84375,
        373539.9375,
        373539.9375,
        372853.28125,
        372853.28125,
        372167.90625,
        372167.90625,
        371483.75,
        371483.75,
        371347.03125,
        371347.03125,
        370664.375,
        370664.375,
        369982.9375,
        369982.9375,
        369302.75,
        369302.75,
        368623.84375,
        368623.84375,
        367946.125,
        367946.125,
        367269.625,
        367269.625,
        366594.4375,
        366594.4375,
        365920.40625,
        365920.40625,
        365247.65625,
        365247.65625,
        364576.09375,
        364576.09375,
        363905.75,
        363905.75,
        363236.625,
        363236.625,
        362568.75,
        362568.75,
        361902.0625,
        361902.0625,
        361236.59375,
        361236.59375,
        360572.34375,
        360572.34375,
        359909.28125,
        359909.28125,
        359247.46875,
        359247.46875,
        358586.84375,
        358586.84375,
        357927.40625,
        357927.40625,
        357269.21875,
        357269.21875,
        356612.1875,
        356612.1875,
        355956.375,
        355956.375,
        355301.75,
        355301.75,
        354648.28125,
        354648.28125,
        353996.09375,
        353996.09375,
        353344.96875,
        353344.96875,
        352695.15625,
        352695.15625,
        352046.46875,
        352046.46875,
        351398.96875,
        351398.96875,
        350752.625,
        350752.625,
        350623.5,
        350623.5,
        349978.5625,
        349978.5625,
        349334.84375,
        349334.84375,
        348692.25,
        348692.25,
        348050.875,
        348050.875,
        347410.6875,
        347410.6875,
        346771.5625,
        346771.5625,
        346133.6875,
        346133.6875,
        345497.0,
        345497.0,
        344861.40625,
        344861.40625,
        344227.0,
        344227.0,
        343593.71875,
        343593.71875,
        342961.65625,
        342961.65625,
        342330.6875,
        342330.6875,
        341700.90625,
        341700.90625,
        341072.25,
        341072.25,
        340444.75,
        340444.75,
        339818.4375,
        339818.4375,
        339193.1875,
        339193.1875,
        338569.125,
        338569.125,
        337946.125,
        337946.125,
        337324.3125,
        337324.3125,
        336703.625,
        336703.625,
        336084.15625,
        336084.15625,
        335465.65625,
        335465.65625,
        334848.40625,
        334848.40625,
        334232.28125,
        334232.28125,
        333617.25,
        333617.25,
        333003.3125,
        333003.3125,
        332390.5,
        332390.5,
        331778.875,
        331778.875,
        331168.3125,
        331168.3125,
        331046.34375,
        331046.34375,
        330437.15625,
        330437.15625,
        329828.96875,
        329828.96875,
        329222.0,
        329222.0,
        328616.09375,
        328616.09375,
        328011.3125,
        328011.3125,
        327407.5625,
        327407.5625,
        326805.09375,
        326805.09375,
        326203.53125,
        326203.53125,
        325603.15625,
        325603.15625,
        325003.84375,
        325003.84375,
        324405.65625,
        324405.65625,
        323808.53125,
        323808.53125,
        323212.53125,
        323212.53125,
        322617.625,
        322617.625,
        322023.78125,
        322023.78125,
        321430.96875,
        321430.96875,
        320839.28125,
        320839.28125,
        320248.6875,
        320248.6875,
        319659.15625,
        319659.15625,
        319070.71875,
        319070.71875,
        318483.3125,
        318483.3125,
        317897.0,
        317897.0,
        317311.8125,
        317311.8125,
        316727.625,
        316727.625,
        316144.5,
        316144.5,
        315562.4375,
        315562.4375,
        314981.46875,
        314981.46875,
        314401.59375,
        314401.59375,
        313822.71875,
        313822.71875,
        313244.90625,
        313244.90625,
        312668.15625,
        312668.15625,
        312552.9375,
        312552.9375,
        311977.46875,
        311977.46875,
        311403.03125,
        311403.03125,
        310829.65625,
        310829.65625,
        310257.28125,
        310257.28125,
        309686.0,
        309686.0,
        309115.75,
        309115.75,
        308546.5625,
        308546.5625,
        307978.34375,
        307978.34375,
        307411.21875,
        307411.21875,
        306845.125,
        306845.125,
        306280.0625,
        306280.0625,
        305716.03125,
        305716.03125,
        305153.0,
        305153.0,
        304591.03125,
        304591.03125,
        304030.09375,
        304030.09375,
        303470.125,
        303470.125,
        302911.25,
        302911.25,
        302353.375,
        302353.375,
        301796.5,
        301796.5,
        301240.65625,
        301240.65625,
        300685.8125,
        300685.8125,
        300132.0625,
        300132.0625,
        299579.1875,
        299579.1875,
        299027.40625,
        299027.40625,
        298476.59375,
        298476.59375,
        297926.84375,
        297926.84375,
        297378.03125,
        297378.03125,
        296830.1875,
        296830.1875,
        296283.4375,
        296283.4375,
        295737.65625,
        295737.65625,
        295192.875,
        295192.875,
        295084.0625,
        295084.0625,
        294540.4375,
        294540.4375,
        293997.8125,
        293997.8125,
        293456.25,
        293456.25,
        292915.59375,
        292915.59375,
        292375.9375,
        292375.9375,
        291837.375,
        291837.375,
        291299.65625,
        291299.65625,
        290763.03125,
        290763.03125,
        290227.28125,
        290227.28125,
        289692.625,
        289692.625,
        289158.84375,
        289158.84375,
        288626.03125,
        288626.03125,
        288094.21875,
        288094.21875,
        287563.4375,
        287563.4375,
        287033.5625,
        287033.5625,
        286504.65625,
        286504.65625,
        285976.78125,
        285976.78125,
        285449.84375,
        285449.84375,
        284923.84375,
        284923.84375,
        284398.78125,
        284398.78125,
        283874.75,
        283874.75,
        283351.625,
        283351.625,
        282829.4375,
        282829.4375,
        282308.21875,
        282308.21875,
        281787.96875,
        281787.96875,
        281268.65625,
        281268.65625,
        280750.3125,
        280750.3125,
        280232.875,
        280232.875,
        279716.46875,
        279716.46875,
        279200.875,
        279200.875,
        278686.34375,
        278686.34375,
        278583.53125,
        278583.53125,
        278070.09375,
        278070.09375,
        277557.59375,
        277557.59375,
        277046.0,
        277046.0,
        276535.40625,
        276535.40625,
        276025.6875,
        276025.6875,
        275516.875,
        275516.875,
        275009.0625,
        275009.0625,
        274502.125,
        274502.125,
        273996.15625,
        273996.15625,
        273491.0625,
        273491.0625,
        272986.96875,
        272986.96875,
        272483.71875,
        272483.71875,
        271981.4375,
        271981.4375,
        271480.0625,
        271480.0625,
        270979.59375,
        270979.59375,
        270480.0625,
        270480.0625,
        269981.4375,
        269981.4375,
        269483.71875,
        269483.71875,
        268986.875,
        268986.875,
        268491.0,
        268491.0,
        267996.0,
        267996.0,
        267501.90625,
        267501.90625,
        267008.75,
        267008.75,
        266516.40625,
        266516.40625,
        266025.03125,
        266025.03125,
        265534.5625,
        265534.5625,
        265044.9375,
        265044.9375,
        264556.28125,
        264556.28125,
        264068.4375,
        264068.4375,
        263581.5625,
        263581.5625,
        263095.5,
        263095.5,
        262998.4375,
        262998.4375,
        262513.4375,
        262513.4375,
        262029.375,
        262029.375,
        261546.21875,
        261546.21875,
        261063.890625,
        261063.890625,
        260582.46875,
        260582.46875,
        260101.9375,
        260101.9375,
        259622.296875,
        259622.296875,
        259143.5,
        259143.5,
        258665.609375,
        258665.609375,
        258188.578125,
        258188.578125,
        257712.421875,
        257712.421875,
        257237.140625,
        257237.140625,
        256762.71875,
        256762.71875,
        256289.171875,
        256289.171875,
        255816.484375,
        255816.484375,
        255344.671875,
        255344.671875,
        254873.71875,
        254873.71875,
        254403.609375,
        254403.609375,
        253934.40625,
        253934.40625,
        253466.0,
        253466.0,
        252998.46875,
        252998.46875,
        252531.84375,
        252531.84375,
        252066.015625,
        252066.015625,
        251601.078125,
        251601.078125,
        251136.96875,
        251136.96875,
        250673.703125,
        250673.703125,
        250211.28125,
        250211.28125,
        249749.734375,
        249749.734375,
        249289.03125,
        249289.03125,
        248829.15625,
        248829.15625,
        248370.109375,
        248370.109375,
        248278.40625,
        248278.40625,
        247820.40625,
        247820.40625,
        247363.1875,
        247363.1875,
        246906.84375,
        246906.84375,
        246451.328125,
        246451.328125,
        245996.640625,
        245996.640625,
        245542.78125,
        245542.78125,
        245089.765625,
        245089.765625,
        244637.578125,
        244637.578125,
        244186.234375,
        244186.234375,
        243735.703125,
        243735.703125,
        243285.96875,
        243285.96875,
        242837.09375,
        242837.09375,
        242389.0,
        242389.0,
        241941.765625,
        241941.765625,
        241495.34375,
        241495.34375,
        241049.71875,
        241049.71875,
        240604.9375,
        240604.9375,
        240160.953125,
        240160.953125,
        239717.796875,
        239717.796875,
        239275.4375,
        239275.4375,
        238833.875,
        238833.875,
        238393.15625,
        238393.15625,
        237953.21875,
        237953.21875,
        237514.078125,
        237514.078125,
        237075.765625,
        237075.765625,
        236638.25,
        236638.25,
        236201.515625,
        236201.515625,
        235765.609375,
        235765.609375,
        235330.484375,
        235330.484375,
        234896.1875,
        234896.1875,
        234462.609375,
        234462.609375,
        234376.015625,
        234376.015625,
        233943.4375,
        233943.4375,
        233511.6875,
        233511.6875,
        233080.671875,
        233080.671875,
        232650.484375,
        232650.484375,
        232221.046875,
        232221.046875,
        231792.4375,
        231792.4375,
        231364.578125,
        231364.578125,
        230937.546875,
        230937.546875,
        230511.25,
        230511.25,
        230085.71875,
        230085.71875,
        229661.015625,
        229661.015625,
        229237.078125,
        229237.078125,
        228813.90625,
        228813.90625,
        228391.5,
        228391.5,
        227969.90625,
        227969.90625,
        227549.0625,
        227549.0625,
        227129.0,
        227129.0,
        226709.6875,
        226709.6875,
        226291.140625,
        226291.140625,
        225873.34375,
        225873.34375,
        225456.359375,
        225456.359375,
        225040.109375,
        225040.109375,
        224624.65625,
        224624.65625,
        224209.90625,
        224209.90625,
        223795.984375,
        223795.984375,
        223382.78125,
        223382.78125,
        222970.359375,
        222970.359375,
        222558.65625,
        222558.65625,
        222147.734375,
        222147.734375,
        221737.546875,
        221737.546875,
        221328.125,
        221328.125,
        221246.34375,
        221246.34375,
        220837.796875,
        220837.796875,
        220430.03125,
        220430.03125,
        220022.984375,
        220022.984375,
        219616.703125,
        219616.703125,
        219211.1875,
        219211.1875,
        218806.390625,
        218806.390625,
        218402.34375,
        218402.34375,
        217999.0,
        217999.0,
        217596.453125,
        217596.453125,
        217194.59375,
        217194.59375,
        216793.484375,
        216793.484375,
        216393.125,
        216393.125,
        215993.484375,
        215993.484375,
        215594.578125,
        215594.578125,
        215196.40625,
        215196.40625,
        214799.0,
        214799.0,
        214402.28125,
        214402.28125,
        214006.296875,
        214006.296875,
        213611.03125,
        213611.03125,
        213216.484375,
        213216.484375,
        212822.671875,
        212822.671875,
        212429.59375,
        212429.59375,
        212037.203125,
        212037.203125,
        211645.578125,
        211645.578125,
        211254.625,
        211254.625,
        210864.421875,
        210864.421875,
        210474.921875,
        210474.921875,
        210086.109375,
        210086.109375,
        209698.0625,
        209698.0625,
        209310.703125,
        209310.703125,
        208924.046875,
        208924.046875,
        208846.796875,
        208846.796875,
        208461.015625,
        208461.015625,
        208075.890625,
        208075.890625,
        207691.5625,
        207691.5625,
        207307.84375,
        207307.84375,
        206924.859375,
        206924.859375,
        206542.59375,
        206542.59375,
        206161.015625,
        206161.015625,
        205780.15625,
        205780.15625,
        205399.984375,
        205399.984375,
        205020.5,
        205020.5,
        204641.703125,
        204641.703125,
        204263.625,
        204263.625,
        203886.203125,
        203886.203125,
        203509.515625,
        203509.515625,
        203133.5,
        203133.5,
        202758.171875,
        202758.171875,
        202383.546875,
        202383.546875,
        202009.609375,
        202009.609375,
        201636.328125,
        201636.328125,
        201263.78125,
        201263.78125,
        200891.875,
        200891.875,
        200520.65625,
        200520.65625,
        200150.125,
        200150.125,
        199780.28125,
        199780.28125,
        199411.125,
        199411.125,
        199042.609375,
        199042.609375,
        198674.796875,
        198674.796875,
        198307.671875,
        198307.671875,
        197941.171875,
        197941.171875,
        197575.375,
        197575.375,
        197210.265625,
        197210.265625,
        197137.3125,
        197137.3125,
        196772.984375,
        196772.984375,
        196409.328125,
        196409.328125,
        196046.34375,
        196046.34375,
        195684.03125,
        195684.03125,
        195322.375,
        195322.375,
        194961.34375,
        194961.34375,
        194601.03125,
        194601.03125,
        194241.34375,
        194241.34375,
        193882.34375,
        193882.34375,
        193524.0,
        193524.0,
        193166.3125,
        193166.3125,
        192809.28125,
        192809.28125,
        192452.859375,
        192452.859375,
        192097.140625,
        192097.140625,
        191742.078125,
        191742.078125,
        191387.671875,
        191387.671875,
        191033.890625,
        191033.890625,
        190680.734375,
        190680.734375,
        190328.28125,
        190328.28125,
        189976.4375,
        189976.4375,
        189625.234375,
        189625.234375,
        189274.703125,
        189274.703125,
        188924.828125,
        188924.828125,
        188575.5625,
        188575.5625,
        188226.9375,
        188226.9375,
        187878.96875,
        187878.96875,
        187531.640625,
        187531.640625,
        187184.953125,
        187184.953125,
        186838.890625,
        186838.890625,
        186493.453125,
        186493.453125,
        186148.671875,
        186148.671875,
        186079.796875,
        186079.796875,
        185735.734375,
        185735.734375,
        185392.359375,
        185392.359375,
        185049.5625,
        185049.5625,
        184707.421875,
        184707.421875,
        184365.921875,
        184365.921875,
        184025.03125,
        184025.03125,
        183684.75,
        183684.75,
        183345.140625,
        183345.140625,
        183006.09375,
        183006.09375,
        182667.71875,
        182667.71875,
        182329.953125,
        182329.953125,
        181992.796875,
        181992.796875,
        181656.296875,
        181656.296875,
        181320.359375,
        181320.359375,
        180985.046875,
        180985.046875,
        180650.359375,
        180650.359375,
        180316.328125,
        180316.328125,
        179982.84375,
        179982.84375,
        179650.015625,
        179650.015625,
        179317.796875,
        179317.796875,
        178986.171875,
        178986.171875,
        178655.171875,
        178655.171875,
        178324.75,
        178324.75,
        177994.96875,
        177994.96875,
        177665.75,
        177665.75,
        177337.171875,
        177337.171875,
        177009.203125,
        177009.203125,
        176681.8125,
        176681.8125,
        176355.03125,
        176355.03125,
        176028.859375,
        176028.859375,
        175703.28125,
        175703.28125,
        175638.25,
        175638.25,
        175313.390625,
        175313.390625,
        174989.09375,
        174989.09375,
        174665.421875,
        174665.421875,
        174342.375,
        174342.375,
        174019.890625,
        174019.890625,
        173698.0,
        173698.0,
        173376.703125,
        173376.703125,
        173055.96875,
        173055.96875,
        172735.859375,
        172735.859375,
        172416.359375,
        172416.359375,
        172097.390625,
        172097.390625,
        171779.0625,
        171779.0625,
        171461.234375,
        171461.234375,
        171144.0625,
        171144.0625,
        170827.453125,
        170827.453125,
        170511.40625,
        170511.40625,
        170195.984375,
        170195.984375,
        169881.125,
        169881.125,
        169566.84375,
        169566.84375,
        169253.140625,
        169253.140625,
        168940.0,
        168940.0,
        168627.421875,
        168627.421875,
        168315.453125,
        168315.453125,
        168004.046875,
        168004.046875,
        167693.203125,
        167693.203125,
        167382.9375,
        167382.9375,
        167073.234375,
        167073.234375,
        166764.109375,
        166764.109375,
        166455.53125,
        166455.53125,
        166147.578125,
        166147.578125,
        165840.15625,
        165840.15625,
        165778.71875,
        165778.71875,
        165471.96875,
        165471.96875,
        165165.796875,
        165165.796875,
        164860.171875,
        164860.171875,
        164555.109375,
        164555.109375,
        164250.625,
        164250.625,
        163946.671875,
        163946.671875,
        163643.296875,
        163643.296875,
        163340.46875,
        163340.46875,
        163038.1875,
        163038.1875,
        162736.484375,
        162736.484375,
        162435.3125,
        162435.3125,
        162134.703125,
        162134.703125,
        161834.671875,
        161834.671875,
        161535.171875,
        161535.171875,
        161236.203125,
        161236.203125,
        160937.828125,
        160937.828125,
        160639.984375,
        160639.984375,
        160342.671875,
        160342.671875,
        160045.90625,
        160045.90625,
        159749.6875,
        159749.6875,
        159454.03125,
        159454.03125,
        159158.890625,
        159158.890625,
        158864.328125,
        158864.328125,
        158570.25,
        158570.25,
        158276.765625,
        158276.765625,
        157983.796875,
        157983.796875,
        157691.375,
        157691.375,
        157399.5,
        157399.5,
        157108.140625,
        157108.140625,
        156817.34375,
        156817.34375,
        156527.0625,
        156527.0625,
        156469.0625,
        156469.0625,
        156179.4375,
        156179.4375,
        155890.3125,
        155890.3125,
        155601.765625,
        155601.765625,
        155313.734375,
        155313.734375,
        155026.203125,
        155026.203125,
        154739.21875,
        154739.21875,
        154452.75,
        154452.75,
        154166.828125,
        154166.828125,
        153881.4375,
        153881.4375,
        153596.546875,
        153596.546875,
        153312.1875,
        153312.1875,
        153028.359375,
        153028.359375,
        152745.046875,
        152745.046875,
        152462.28125,
        152462.28125,
        152180.0,
        152180.0,
        151898.234375,
        151898.234375,
        151617.03125,
        151617.03125,
        151336.296875,
        151336.296875,
        151056.09375,
        151056.09375,
        150776.421875,
        150776.421875,
        150497.25,
        150497.25,
        150218.59375,
        150218.59375,
        149940.453125,
        149940.453125,
        149662.828125,
        149662.828125,
        149385.703125,
        149385.703125,
        149109.0625,
        149109.0625,
        148832.984375,
        148832.984375,
        148557.421875,
        148557.421875,
        148282.3125,
        148282.3125,
        148007.75,
        148007.75,
        147733.65625,
        147733.65625,
        147678.890625,
        147678.890625,
        147405.4375,
        147405.4375,
        147132.46875,
        147132.46875,
        146860.0,
        146860.0,
        146588.03125,
        146588.03125,
        146316.578125,
        146316.578125,
        146045.59375,
        146045.59375,
        145775.140625,
        145775.140625,
        145505.171875,
        145505.171875,
        145235.71875,
        145235.71875,
        144966.71875,
        144966.71875,
        144698.21875,
        144698.21875,
        144430.234375,
        144430.234375,
        144162.765625,
        144162.765625,
        143895.75,
        143895.75,
        143629.234375,
        143629.234375,
        143363.21875,
        143363.21875,
        143097.671875,
        143097.671875,
        142832.640625,
        142832.640625,
        142568.09375,
        142568.09375,
        142304.015625,
        142304.015625,
        142040.4375,
        142040.4375,
        141777.34375,
        141777.34375,
        141514.75,
        141514.75,
        141252.609375,
        141252.609375,
        140990.96875,
        140990.96875,
        140729.8125,
        140729.8125,
        140469.125,
        140469.125,
        140208.90625,
        140208.90625,
        139949.1875,
        139949.1875,
        139689.9375,
        139689.9375,
        139431.171875,
        139431.171875,
        139379.484375,
        139379.484375,
        139121.265625,
        139121.265625,
        138863.546875,
        138863.546875,
        138606.28125,
        138606.28125,
        138349.515625,
        138349.515625,
        138093.21875,
        138093.21875,
        137837.375,
        137837.375,
        137582.0,
        137582.0,
        137327.125,
        137327.125,
        137072.703125,
        137072.703125,
        136818.75,
        136818.75,
        136565.265625,
        136565.265625,
        136312.234375,
        136312.234375,
        136059.671875,
        136059.671875,
        135807.609375,
        135807.609375,
        135555.96875,
        135555.96875,
        135304.8125,
        135304.8125,
        135054.109375,
        135054.109375,
        134803.890625,
        134803.890625,
        134554.109375,
        134554.109375,
        134304.78125,
        134304.78125,
        134055.921875,
        134055.921875,
        133807.53125,
        133807.53125,
        133559.59375,
        133559.59375,
        133312.09375,
        133312.09375,
        133065.078125,
        133065.078125,
        132818.5,
        132818.5,
        132572.359375,
        132572.359375,
        132326.71875,
        132326.71875,
        132081.484375,
        132081.484375,
        131836.71875,
        131836.71875,
        131592.40625,
        131592.40625,
        131543.59375,
        131543.59375,
        131299.828125,
        131299.828125,
        131056.5078125,
        131056.5078125,
        130813.6328125,
        130813.6328125,
        130571.21875,
        130571.21875,
        130329.21875,
        130329.21875,
        130087.6640625,
        130087.6640625,
        129846.59375,
        129846.59375,
        129605.953125,
        129605.953125,
        129365.734375,
        129365.734375,
        129125.984375,
        129125.984375,
        128886.65625,
        128886.65625,
        128647.765625,
        128647.765625,
        128409.34375,
        128409.34375,
        128171.3515625,
        128171.3515625,
        127933.7578125,
        127933.7578125,
        127696.640625,
        127696.640625,
        127459.953125,
        127459.953125,
        127223.7109375,
        127223.7109375,
        126987.875,
        126987.875,
        126752.5,
        126752.5,
        126517.546875,
        126517.546875,
        126283.0390625,
        126283.0390625,
        126048.953125,
        126048.953125,
        125815.296875,
        125815.296875,
        125582.0625,
        125582.0625,
        125349.28125,
        125349.28125,
        125116.9140625,
        125116.9140625,
        124884.984375,
        124884.984375,
        124653.4609375,
        124653.4609375,
        124422.375,
        124422.375,
        124191.7265625,
        124191.7265625
    ]
}